Time:125Hz,Epoch,FP1,FP2,C3,C4,P7,P8,O1,O2,F7,F8,F3,F4,T7,T8,P3,P4,,,,
122.6799999,479,0,-17.41814148,12.73993938,17.94715071,-154.8048162,-8.675844734,-21.94279397,-11.97350515,-4.765750675,25.73073153,-3.046628229,0,33.17206792,-0.992028069,-1730.925727,-402.0996498,,,,
122.6879999,479,0,-103.4990722,-26.15971233,-21.72901814,-181.5858804,-46.64204484,-39.0355946,-39.87669897,-77.05260217,-25.46350293,-5.717143964,0,-32.99725799,-40.60992392,-1727.446594,-187.5391398,,,,
122.6959999,479,0,13.51186116,78.15071023,73.17721769,-87.71422377,47.25349985,40.56638476,35.65377596,-16.1160005,2.453128428,-73.17338557,0,22.6889261,20.70759363,-1723.937195,-212.1027457,,,,
122.7039999,479,0,-8.00286579,53.55277051,42.064157,-128.6704078,29.11544106,4.511481319,21.87561776,-2.253905032,32.66032108,66.93565868,0,34.30600179,18.50582551,-1720.397737,-349.8088342,,,,
122.7119999,479,0,-51.85376363,72.16063708,48.16354825,-129.3070843,28.21724182,21.56942339,23.52281388,-61.57628993,-12.37054985,7.861897572,0,-13.15218527,-16.1372148,-1716.828424,-7.704680442,,,,
122.7199999,479,0,-8.086036637,74.70410043,35.12276149,-140.0930863,28.21551994,4.422940029,17.89263413,-8.342089105,41.53998885,7.055142215,0,45.26921815,39.39083894,-1713.229463,-381.2302373,,,,
122.7279999,479,0,-105.2275469,31.01062811,-19.15653439,-173.2693865,-15.42599561,-34.30265729,-14.48191411,-76.33026462,-6.299117274,1.235985349,0,-18.61459068,-22.31369009,-1709.601056,-168.4353713,,,,
122.7359999,479,0,-38.39363743,95.64680967,26.58511265,-135.2614849,31.62388222,10.283619,1.477734027,-48.55690498,10.96679761,-91.3466532,0,12.9648792,11.82085763,-1705.943409,-212.5222862,,,,
122.7439999,479,0,-70.22774239,67.69426641,-8.491343656,-179.5716793,7.201227744,-23.37598391,-24.83618047,-68.83874618,17.03648241,8.712856781,0,-0.883903628,6.000584013,-1702.25673,-368.0095189,,,,
122.7519999,479,0,-76.42635011,118.0731075,35.30184661,-125.7431316,41.29017309,27.8685386,43.27673936,-104.764028,-31.86204528,-41.92897365,0,-34.8718663,-42.95086117,-1698.54122,-29.72287665,,,,
122.7599999,479,0,-19.80996002,121.6714794,28.90720595,-138.5437412,43.53464998,13.53279807,35.56265715,-3.188547485,45.24737545,2.759038049,0,58.23576255,35.62988008,-1694.797086,-380.7886714,,,,
122.7679999,479,0,-113.2803752,68.5204699,-22.65431557,-199.8597166,-10.09256987,-42.58364797,-29.8243825,-66.00976292,9.179717976,0.412610181,0,-10.39047017,-10.0415075,-1691.024532,-163.6795599,,,,
122.7759999,479,0,-21.97633851,148.5893827,50.0264442,-147.3058788,49.11963186,19.99405838,36.68503334,-41.27906758,26.75442762,-88.91986896,0,19.65804745,4.450492195,-1687.223766,-223.5187653,,,,
122.7839999,479,0,-51.77007709,112.9026609,13.31765283,-175.8157489,21.88690268,-2.771355937,0.529049655,-44.29156808,33.27278087,42.47722514,0,29.94930085,7.081799963,-1683.394988,-362.2154322,,,,
122.7919999,479,0,-84.25189254,122.1696908,23.07431449,-144.098747,26.85237759,15.2749086,-6.697578216,-95.14939148,-28.77049753,-18.2227321,0,-29.32838252,-36.21330228,-1679.538405,-30.01820708,,,,
122.7999999,479,0,-45.06146974,95.70278991,-6.083286508,-177.269118,8.112526459,-16.04759568,2.014396105,-29.78447778,18.10959088,-5.361479647,0,26.82186205,6.091976028,-1675.654222,-408.6976195,,,,
122.8079999,479,0,-134.5660738,40.50706864,-54.53503823,-222.0830236,-33.68038396,-54.48685418,-37.94336355,-93.72568133,-27.3698307,-11.4096197,0,-31.65836676,-61.16791308,-1671.742642,-197.78437,,,,
122.8159999,479,0,-45.94644873,113.8547852,17.15784725,-167.2029048,37.27905407,1.562837129,-15.74919428,-57.90189264,1.748135206,-101.5609004,0,-1.888676465,-21.58975826,-1667.803871,-260.0760459,,,,
122.8239999,479,0,-94.39004988,51.19983451,-39.33113053,-234.8332417,-12.47869323,-56.19618471,-44.04790672,-73.04596088,-1.198629174,10.10614699,0,-10.86342096,-6.658951849,-1663.838112,-399.5440172,,,,
122.8319999,479,0,-120.5082804,64.6325507,-19.69992956,-204.1731371,-10.63905893,-37.48672761,-18.57941123,-135.2661571,-52.52813531,-62.93712836,0,-68.03108117,-78.11375192,-1659.84557,-85.1645859,,,,
122.8399999,479,0,-43.08013622,89.95936311,4.807030973,-180.2398138,17.79534599,-22.74068442,-23.50432526,-48.82460223,31.27825651,-32.08651485,0,10.71115209,-20.23502276,-1655.826449,-460.8112076,,,,
122.8479999,479,0,-103.0704342,68.35867349,-13.23160385,-200.8770174,-0.267025904,-38.89947517,-33.11071973,-67.94611163,-3.250923126,-0.420695054,0,-5.27626495,-20.1074603,-1651.780952,-195.9492142,,,,
122.8559999,479,0,-20.98471137,126.6361372,41.35456282,-157.0023385,45.52014446,5.447725131,25.76819795,-11.49184515,27.43117949,-65.35586824,0,45.13283451,14.77700321,-1647.709283,-236.2236613,,,,
122.8639999,479,0,-89.19781664,49.58989395,-30.15638441,-217.4521135,-17.36584024,-58.04080155,-31.43444607,-48.40487153,21.65251957,29.75599052,0,7.760414002,-23.30414462,-1643.611648,-399.3786067,,,,
122.8719999,479,0,-114.2029757,74.26719191,-4.119684779,-178.5241956,0.571259112,-34.48664828,-15.68579164,-135.011929,-52.09887339,-68.11611934,0,-73.92739183,-94.95849873,-1639.488246,-95.9128368,,,,
122.8799999,480,0,-29.5423845,111.896434,27.21745993,-146.3739393,38.66860019,-1.902687105,15.07115697,-28.61915002,48.45941378,-14.73844364,0,21.15287241,0.095461709,-1635.339284,-451.9273023,,,,
122.8879999,480,0,-117.0070586,67.6948102,-13.42709006,-183.2580235,-4.674397347,-29.4398668,-19.51582795,-45.72869033,36.5255652,25.91810506,0,15.67309411,9.045160175,-1631.164965,-189.4215771,,,,
122.8959999,480,0,-50.30066396,115.9803412,35.96958739,-166.7565947,38.2636021,-5.23218264,5.834743701,-42.73632773,26.86856245,-87.99441227,0,34.93981111,10.59235481,-1626.96549,-261.6363653,,,,
122.9039999,480,0,-72.44261349,86.38287526,14.38627185,-188.1858589,29.16935273,-22.52707115,3.191868614,-52.81566767,31.86489594,17.96799314,0,16.64467854,6.17638403,-1622.741065,-398.2808628,,,,
122.9119999,480,0,-100.5163144,99.24233881,26.25216102,-150.5002908,30.26917984,3.066505003,24.89041113,-86.00290186,-8.960825896,-25.17538842,0,-18.96628991,-17.91555457,-1618.491891,-55.7926839,,,,
122.9199999,480,0,-65.81232828,82.62104681,6.983047639,-171.5934843,13.09688217,-24.23384073,11.98773121,-30.56956121,48.10473574,-6.724545725,0,32.77631919,3.04250557,-1614.218169,-437.4172775,,,,
122.9279999,480,0,-155.2365363,35.18693732,-25.84197951,-196.3485037,-19.08936105,-56.85447012,-28.60121413,-83.80212751,8.660981464,-12.99261947,0,-20.57734733,-34.75643415,-1609.920105,-201.0374681,,,,
122.9359999,480,0,-91.6254815,67.73689806,11.08678387,-178.404388,5.152029361,-34.87634638,-23.46865598,-75.59952511,-12.97187554,-123.7771191,0,-0.878164318,-6.334967742,-1605.5979,-279.1820663,,,,
122.9439999,480,0,-94.20941995,47.65282586,-0.211067522,-198.0120067,-9.315811592,-51.65746609,-18.67269815,-81.95460717,-8.231368,-20.60744998,0,-14.92944437,-25.66344768,-1601.251756,-431.2413987,,,,
122.9519999,480,0,-78.50473176,102.1869174,62.22622182,-134.9503853,44.4550126,6.416629071,37.20640202,-77.98127308,0.967475742,-40.82252022,0,-23.8584174,-29.72723056,-1596.881873,-83.31009374,,,,
122.9599999,480,0,-59.97561961,68.29749312,29.39048284,-184.0276896,18.81491977,-26.56194601,12.9378299,-21.39847856,57.71890614,-2.014706872,0,43.59410344,35.58061131,-1592.488456,-436.3152396,,,,
122.9679999,480,0,-137.7454237,33.39848827,1.302238451,-191.3626494,-12.26126913,-45.47730317,17.29287018,-85.45366521,5.095633374,-15.63741449,0,-7.485007057,-15.14596091,-1588.071705,-198.4827546,,,,
122.9759999,480,0,-29.96740228,111.0699811,78.42440612,-101.287098,57.79931277,21.48368611,93.55680177,-22.06959592,34.66377708,-86.38316726,0,47.68109836,25.54663897,-1583.631821,-269.2684883,,,,
122.9839999,480,0,-76.99343954,55.69607631,32.61952836,-152.8504961,24.09979702,-27.81254647,27.1800397,-34.36672552,13.8251659,27.04621859,0,20.30394444,18.57472179,-1579.169007,-396.7722273,,,,
122.9919999,480,0,-102.948168,84.95030832,61.61808498,-143.8221134,50.43024961,3.778891204,22.97584307,-89.69157508,-18.34112581,-40.91484617,0,-32.06349677,-5.529901932,-1574.683463,-63.71162216,,,,
122.9999999,480,0,-58.33880949,75.64369885,41.12835886,-167.539569,29.96985417,-10.65627778,24.19240171,-10.26989569,79.84143331,4.133579091,0,63.36819278,62.12327452,-1570.17539,-430.9399008,,,,
123.0079999,480,0,-128.6797645,40.15521547,9.711478518,-175.3288083,-7.603501612,-46.05214265,11.47058796,-53.78613704,19.86604014,5.540810513,0,19.68076142,-5.126662697,-1565.644987,-198.1538463,,,,
123.0159999,480,0,-27.87127334,119.8431389,90.29278168,-105.1807404,72.24513664,28.18917651,78.04861772,-12.22237944,41.41395535,-72.9841657,0,48.96866869,28.79174485,-1561.092458,-273.8240017,,,,
123.0239999,480,0,-63.29476214,75.81527618,53.34890142,-149.9710156,50.2338675,-7.851244388,28.69251964,-16.04454567,57.08468461,55.51424369,0,52.02578319,53.25074913,-1556.517999,-380.1667769,,,,
123.0319999,480,0,-75.75937372,100.6364187,75.56200107,-127.618591,63.82205271,8.608913785,58.73845828,-60.76693897,13.16213914,-9.627873739,0,14.69883723,10.47785006,-1551.921813,-55.79579308,,,,
123.0399999,480,0,-44.11817566,73.02995586,40.29374817,-161.6028255,36.78641775,-16.56567551,68.10918817,6.843861365,91.8324859,17.06272038,0,61.94401029,52.03619246,-1547.304099,-435.780669,,,,
123.0479999,480,0,-138.7935819,14.36222279,-13.39709157,-195.1646022,-7.673974261,-75.83556514,4.810842738,-51.17857624,32.14277723,4.290602422,0,-2.195786594,2.534292333,-1542.665057,-195.1865819,,,,
123.0559999,480,0,-48.54874458,83.03750774,49.39864395,-126.4890389,50.52845953,-12.84821319,52.9676282,-28.08542967,35.15183059,-89.13755727,0,39.04738039,21.11093585,-1538.004884,-290.1472275,,,,
123.0639999,480,0,-83.72020038,43.41440774,11.8853279,-178.5686297,20.72985607,-33.39104154,22.64102418,-41.0408895,54.49449292,30.52200804,0,32.66458489,24.54859349,-1533.323783,-404.2268216,,,,
123.0719999,480,0,-80.90765985,81.30829531,50.40008009,-142.5796268,48.43897867,-4.496169878,59.60456124,-74.53183352,19.35184082,-28.88095186,0,-4.870364984,-12.45296142,-1528.621949,-76.46787276,,,,
123.0799999,480,0,-39.92116217,67.76825349,36.11410261,-145.9407494,39.30482279,-24.52594797,62.76008167,-1.495300131,84.1921943,9.645583781,0,53.15133882,38.53608244,-1523.899582,-452.0903508,,,,
123.0879999,480,0,-121.9182436,30.41525175,7.046809538,-183.7446361,20.65346092,-55.51904556,3.845726344,-39.20843582,63.823331,22.04592375,0,9.577555628,33.2460442,-1519.156881,-186.7324551,,,,
123.0959999,480,0,-29.99245355,90.74888929,60.12810225,-122.816326,62.97110685,15.56188125,55.07638341,2.050987252,94.77217354,-58.35852208,0,64.187935,58.05450578,-1514.394043,-267.3200121,,,,
123.1039999,480,0,-110.3479588,2.147606223,-21.15254769,-180.1751494,-19.47131433,-60.36971413,-0.261108984,-54.29812688,48.59545115,24.2992018,0,21.37633109,-6.028721743,-1509.611267,-405.5360758,,,,
123.1119999,480,0,-127.5656647,32.50934003,17.66652052,-157.2189525,17.25554343,-48.08911347,5.026239546,-108.5820998,-8.723601653,-58.62704885,0,-24.98768444,-43.74826985,-1504.808749,-107.5619908,,,,
123.1199999,480,0,-67.7271247,35.74979647,13.45421185,-157.0835243,13.22405128,-27.46619117,30.50137916,-19.76695047,80.16189862,-12.38656698,0,47.39133426,27.59591382,-1499.986688,-476.3054408,,,,
123.1279999,480,0,-169.0750324,-26.90158791,-42.76290748,-195.5096884,-46.52290093,-76.75895448,-11.18963101,-87.55685011,15.51808799,-20.03566271,0,-29.56216909,-37.44909607,-1495.145281,-223.6229623,,,,
123.1359999,481,0,-71.33222146,47.45555735,37.14621102,-131.2213961,32.84345565,-22.64877114,24.13462953,-46.59366898,44.29501255,-104.9550723,0,19.92137336,-5.333188707,-1490.284724,-323.6699374,,,,
123.1439999,481,0,-87.49676888,16.6984097,17.11288107,-153.3474657,10.63643206,-39.09646826,20.27080704,-39.3222108,75.62241864,24.1242148,0,25.08060732,13.91775642,-1485.405213,-418.9156961,,,,
123.1519999,481,0,-106.44492,28.64366471,38.73445539,-145.4446372,15.06026203,-36.27652172,40.24720999,-86.78706564,24.15052138,-38.25589169,0,-13.79179783,-32.2244384,-1480.506944,-97.58669874,,,,
123.1599999,481,0,-73.13472821,5.867489493,22.14917977,-156.5103657,0.526258243,-47.65992998,32.28004722,-41.23448727,63.14135982,-19.25268004,0,25.89130995,-3.654376513,-1475.590115,-482.8992694,,,,
123.1679999,481,0,-141.9989516,-27.29827656,3.731461691,-161.6654341,-18.61432315,-62.66008414,7.099191,-84.97346747,31.88284159,-14.22422505,0,-29.96897507,-21.35814674,-1470.65492,-212.3673858,,,,
123.1759999,481,0,-56.66799901,28.86359571,57.17840697,-148.5447064,33.78030252,-35.62395035,19.25314025,-26.13775423,81.7077264,-80.48966856,0,46.75964336,30.27340903,-1465.701556,-298.5273959,,,,
123.1839999,481,0,-105.87408,-24.13080507,1.381209301,-183.7996786,-10.69933528,-47.07073674,5.956851385,-63.96850047,45.43195637,7.742571464,0,20.7513922,-14.28425717,-1460.730215,-421.3120801,,,,
123.1919999,481,0,-101.7357858,11.74014765,41.72680709,-118.2396811,29.61861691,7.623915497,49.43592081,-102.440251,4.349418923,-51.85972987,0,-29.93057321,-38.82349626,-1455.741093,-107.2400525,,,,
123.1999999,481,0,-62.43917486,-11.95805061,15.70081357,-160.926726,14.73091722,-50.4302824,12.11271201,-24.78511957,91.63204536,-0.324501037,0,35.79561478,42.67414047,-1450.734387,-472.1604131,,,,
123.2079999,481,0,-122.2696097,-25.60999292,-6.360022435,-160.125805,-3.730452094,-59.10082145,14.19160252,-76.69731538,42.59162378,-5.202740333,0,-12.0201903,-10.68410665,-1445.710289,-216.8072904,,,,
123.2159999,481,0,-27.80780737,48.92634338,53.21691473,-103.3669913,57.95370231,3.359001641,58.33407581,-7.10404505,102.3833305,-52.20949454,0,66.9075231,36.91515104,-1440.668992,-310.4849103,,,,
123.2239999,481,0,-105.0860225,-30.14180065,-24.83685164,-172.269198,-10.5796449,-72.75826066,-13.45660874,-38.75560318,90.67545953,44.11136368,0,41.51179263,11.65943939,-1435.61069,-420.8489165,,,,
123.2319999,481,0,-97.81745673,19.3020825,29.37435005,-96.50720875,38.23921417,-19.60535174,25.8267923,-98.22134463,27.45701992,-47.39137858,0,-32.51643141,-39.03233604,-1430.535578,-125.1980798,,,,
123.2399999,481,0,-73.00899407,-15.30222057,-7.406678599,-143.6190333,11.64952193,-58.77923413,0.098134388,-18.6233689,113.3818567,12.33223817,0,40.20790956,37.10497613,-1425.443847,-477.6358756,,,,
123.2479999,481,0,-189.2949996,-95.49315449,-82.20677227,-206.1441388,-66.3750503,-124.3166648,-46.29636158,-105.0991758,32.82433391,-25.18222009,0,-32.74157607,-41.21399626,-1420.33569,-228.8741816,,,,
123.2559999,481,0,-78.06510461,-8.343168996,12.5231508,-100.7984526,18.27115911,-37.47812942,20.01989436,-84.21239214,29.72291487,-135.6998846,0,-21.85276279,-29.14156205,-1415.2113,-366.6488454,,,,
123.2639999,481,0,-107.5069963,-40.33515289,-9.063417113,-127.4262276,-0.306885943,-58.13842455,-3.242761346,-63.53848286,68.06898927,2.425616858,0,1.380247361,5.809418996,-1410.070869,-433.8685307,,,,
123.2719999,481,0,-98.44929718,10.3705524,41.49739903,-90.0912643,37.44358533,-15.27080547,33.68313826,-84.94717803,39.91545099,-43.57336687,0,-5.756593509,-8.237746903,-1404.914587,-102.5834707,,,,
123.2799999,481,0,-47.8215045,6.683804103,35.58360511,-109.5558883,36.27639428,-23.84019089,34.00875151,-23.17802785,93.42185952,8.539845676,0,47.03403357,37.80534496,-1399.742646,-471.3430723,,,,
123.2879999,481,0,-125.9329298,-38.7392987,-2.467877532,-144.6083309,-0.291190205,-51.40917532,10.17094716,-64.35290475,67.26011883,10.81404818,0,3.374105919,10.04393782,-1394.555238,-194.1949902,,,,
123.2959999,481,0,-30.25730313,26.33164789,57.72741075,-62.22045446,54.80556215,14.40209506,68.93057978,-11.44842703,107.8663591,-72.908408,0,52.94643937,64.10880681,-1389.352552,-308.8228349,,,,
123.3039999,481,0,-99.19815093,-44.67369466,-15.45596468,-113.5757296,-10.57210727,-39.72876785,26.59733179,-45.10747567,77.8443574,20.3844463,0,25.36811456,30.51233118,-1384.134778,-404.6835325,,,,
123.3119999,481,0,-102.2695185,-12.46486865,15.50211321,-77.35001214,18.97043397,-9.570843629,30.71199072,-95.78317257,15.08453552,-55.1241332,0,-9.541391572,-27.23747048,-1378.902107,-115.6414596,,,,
123.3199999,481,0,-58.30321734,-23.62274146,-0.937762581,-74.74789398,13.30955042,-27.64500708,15.13236145,-27.50818087,81.60041424,-7.758612896,0,38.94116575,28.44741356,-1373.654728,-492.2931419,,,,
123.3279999,481,0,-154.7187032,-76.25085431,-54.42202738,-123.6163855,-42.45259138,-76.73340084,-11.86145737,-88.17483349,24.69799578,-19.3696972,0,-27.78878263,-20.94405322,-1368.39283,-216.0968108,,,,
123.3359999,481,0,-39.22632395,14.54026876,26.26461847,-59.30937791,36.3992454,6.199081638,52.49328447,-31.58932148,75.41863166,-87.9168955,0,49.02750042,25.09096945,-1363.116603,-346.437787,,,,
123.3439999,481,0,-76.06748652,-23.52612693,-11.78346203,-90.0331894,17.48606891,-19.9812734,37.14753346,-28.04227994,96.87092067,38.80769423,0,45.26942398,39.69375863,-1357.826235,-416.3920271,,,,
123.3519999,481,0,-97.91144464,-8.221307388,2.986614404,-67.31736459,28.35742666,-18.42743373,46.36564409,-83.2708857,24.22979415,-45.28755523,0,-16.98138475,-10.78445275,-1352.521911,-106.2913637,,,,
123.3599999,481,0,-52.6157146,-10.52596271,-6.074129226,-75.33779645,25.72320779,-31.32749234,11.22657403,-33.94282161,84.52908272,-12.59572869,0,44.18363695,21.18244617,-1347.203823,-494.2908279,,,,
123.3679999,481,0,-93.78639586,-9.596032246,-2.84319625,-69.37934647,32.45084804,-14.11026479,20.98931536,-39.65114103,83.37535401,23.80895898,0,35.91804754,26.19918448,-1341.872157,-179.1159194,,,,
123.3759999,481,0,7.019564088,55.7126147,58.66104576,-5.5213925,86.31921622,44.77402189,90.9508205,32.27636603,117.7656761,-27.8755409,0,97.38834172,84.9190801,-1336.527098,-273.8196193,,,,
123.3839999,481,0,-73.09942634,-19.03314702,-13.0299768,-86.36723299,17.5883449,-31.07918081,22.94286573,-20.17537475,92.88023225,48.43068931,0,52.92600859,35.26346666,-1331.168833,-381.5180158,,,,
123.3919999,482,0,-85.96150115,13.63105062,23.27912771,-65.29404902,36.41510592,2.184463326,56.77727934,-66.40096958,46.98770187,-33.45601179,0,9.585040428,-7.867729308,-1325.79755,-96.27529598,,,,
123.3999999,482,0,-78.79655749,-32.47125461,-15.91830562,-84.44276607,-3.185336381,-35.57269023,26.38696019,-24.09284011,73.45169821,1.714711232,0,48.32057115,16.94413219,-1320.413434,-482.7478775,,,,
123.4079999,482,0,-175.7709097,-83.97838508,-58.48787346,-130.376042,-39.67631946,-84.89394681,-39.20469925,-98.28187002,8.4742473,-27.57506566,0,-20.44617256,-42.99259977,-1315.01667,-214.4311845,,,,
123.4159999,482,0,-62.19947539,4.254713302,23.62531421,-79.01036991,41.61719181,-10.18531445,24.32730874,-28.62472309,59.65170199,-100.8713211,0,47.02053032,30.77871958,-1309.607444,-340.3855052,,,,
123.4239999,482,0,-137.9705343,-70.95447249,-47.5050078,-125.2743306,-23.14793144,-70.91551366,-21.00921036,-59.34630002,44.60591426,2.839004647,0,18.89993111,5.56922989,-1304.185937,-421.4153836,,,,
123.4319999,482,0,-156.0614921,-52.46259168,-26.97127933,-97.23137571,-13.02332938,-54.95366851,-3.362688663,-128.6941285,-20.75273805,-85.32148504,0,-47.57891731,-54.2062837,-1298.752337,-138.6441618,,,,
123.4399999,482,0,-94.65594394,-49.31510391,-22.36122871,-108.5950643,-7.002043375,-49.74185874,15.29617089,-56.96159851,49.61356856,-35.6563701,0,14.57405799,8.646492922,-1293.306827,-515.0277637,,,,
123.4479999,482,0,-165.9743522,-85.29787387,-49.41528249,-124.8557349,-35.57741607,-73.54680925,-6.542240849,-92.94421503,22.15228251,-24.18874546,0,-20.72038247,-38.52891741,-1287.84959,-212.3324053,,,,
123.4559999,482,0,-60.93202415,-5.453553328,27.08435048,-52.73571024,42.4069343,-5.158930869,55.07302779,-33.00192359,53.55652576,-91.03936295,0,44.46067767,18.21809218,-1282.380809,-343.8255483,,,,
123.4639999,482,0,-107.2037598,-46.9426717,-12.14865673,-87.16207295,8.591554585,-31.84378876,26.86255795,-37.14802217,62.92594808,25.1356443,0,37.99422474,26.04123327,-1276.900665,-411.1754445,,,,
123.4719999,482,0,-116.6758653,-22.59548132,14.38873398,-63.46137243,26.17473164,-14.40291449,22.84638738,-84.9975471,27.79796469,-42.17883711,0,-11.85910302,-24.28871581,-1271.409342,-106.2703496,,,,
123.4799999,482,0,-60.40916954,-13.27686071,22.82070503,-63.05218962,47.6233509,-10.42549405,43.35108933,-18.38627826,90.2206146,9.150508274,0,52.06832767,43.42181097,-1265.907021,-475.7928924,,,,
123.4879999,482,0,-105.3776626,-15.58819406,20.81820767,-45.78443733,38.5824062,3.719841991,66.83694505,-27.17210291,96.73964088,38.59905356,0,45.13828898,31.82273417,-1260.393884,-156.7454109,,,,
123.4959999,482,0,-14.12304962,41.56028889,72.72022932,-1.270535776,84.13249371,44.71894572,92.0360694,38.74050586,154.8013841,-17.85193712,0,121.3471152,84.83822308,-1254.870112,-282.585345,,,,
123.5039999,482,0,-99.34451287,-41.76346516,-2.602356988,-91.99011761,19.37943195,-30.80593933,26.77833099,-13.44909063,95.12497269,52.64635459,0,67.43219276,63.97980043,-1249.335883,-367.4169278,,,,
123.5119999,482,0,-95.14719628,-3.443575114,42.79704585,-38.0500006,49.56439641,12.8739918,73.64084653,-69.39922621,33.51670439,-38.14592554,0,3.642564869,0.490751866,-1243.791379,-89.06102239,,,,
123.5199999,482,0,-42.69164771,3.256490071,50.47985305,-12.25750057,58.03419582,17.33920102,93.96925914,11.28106697,130.1624573,31.26539872,0,80.89947904,58.45419935,-1238.23678,-455.0196713,,,,
123.5279999,482,0,-136.3535059,-44.33910166,4.830523685,-67.89697886,8.883624526,-27.23894972,39.76242533,-49.82129967,88.09754208,32.12585602,0,17.28008376,29.49388443,-1232.672264,-146.0217759,,,,
123.5359999,482,0,-52.48216299,6.572288974,49.50443617,-71.6014882,51.90407157,-0.494595066,39.25731851,-18.44080992,110.1210375,-57.61400731,0,63.34176543,64.36630442,-1227.09801,-307.3587989,,,,
123.5439999,482,0,-102.7418946,-37.17235204,4.948630279,-107.2148617,13.84720676,-33.27879785,26.56099444,-34.33081246,84.62900111,36.04069919,0,57.18173131,55.19638893,-1221.514196,-382.0109096,,,,
123.5519999,482,0,-99.24434652,7.510391025,42.71303131,-35.63307371,42.09056449,14.56367992,73.40773625,-86.93013973,27.26051264,-42.34558986,0,-2.264876369,-0.695009338,-1215.921001,-95.47682526,,,,
123.5599999,482,0,-49.80514306,19.93499114,39.40808788,-43.38179628,54.14569774,5.025709792,61.02055659,-14.83575146,128.4054211,20.76006736,0,68.81683109,51.99190168,-1210.3186,-472.2542485,,,,
123.5679999,482,0,-107.7757147,16.6601775,21.58072486,-43.72620149,43.33591992,2.942652593,61.23843423,-38.82534053,109.3933462,45.04024142,0,43.15850516,49.4475573,-1204.707173,-149.6249405,,,,
123.5759999,482,0,-13.7622115,85.08951156,69.33201657,6.005643501,96.75192387,51.99787633,88.94545548,-3.448525841,142.5910108,-34.41217899,0,78.60167394,95.02715192,-1199.086893,-300.31977,,,,
123.5839999,482,0,-63.98483641,48.61082768,18.93904267,-50.06010004,54.00745782,0.961980232,48.31600059,-17.87602932,156.1115802,65.52398144,0,74.81077171,78.06704046,-1193.457938,-365.1485467,,,,
123.5919999,482,0,-55.77397817,93.40797742,54.23063171,-5.151089142,81.88371556,36.57797226,93.34626603,-38.14807837,103.5351215,12.44679237,0,54.66982022,39.32421204,-1187.820483,-65.78044664,,,,
123.5999999,482,0,-31.52852665,67.15475457,15.79304486,-38.33830392,62.41492245,6.073212531,72.78660642,5.235466626,148.4667457,52.55101268,0,81.53954701,64.58229768,-1182.174705,-453.4404076,,,,
123.6079999,482,0,-102.2197965,49.43232063,-14.16735098,-60.48550754,32.68581537,-8.407413542,49.40891643,-54.86743836,109.8358983,39.88663101,0,21.17880633,14.38893501,-1176.520774,-155.4008244,,,,
123.6159999,482,0,-3.984487208,130.2237797,54.70453684,-16.98296733,98.53903201,51.70912625,83.80993216,5.750344034,150.7951485,-26.30703247,0,101.7766384,90.86095921,-1170.858869,-301.354701,,,,
123.6239999,482,0,-70.75206755,72.720519,-4.212224744,-70.95492603,44.60541442,0.746654956,67.92957464,-14.23963548,156.8768429,69.1900891,0,88.40071394,75.40822152,-1165.189161,-362.3811744,,,,
123.6319999,482,0,-48.4832829,125.1558076,49.16816927,-5.399015667,86.64568259,55.52882227,131.5447567,-50.81153129,115.7811261,-0.564717685,0,35.43688173,11.15459034,-1159.511825,-81.74971847,,,,
123.6399999,482,0,-24.71740849,106.1924716,31.0868425,-49.0816336,81.05145319,23.12499843,75.37440903,7.762001963,163.8738169,61.33551791,0,87.05783832,77.65232603,-1153.827031,-443.112231,,,,
123.6479999,483,0,-141.1553333,40.9072189,-31.16581646,-110.7927341,17.95204207,-42.80368467,-4.21399969,-61.41353084,99.96581974,45.19642112,0,26.38441025,37.38014442,-1148.134953,-136.7736705,,,,
123.6559999,483,0,-25.82458929,123.9503418,45.64031615,-35.06462745,85.59468623,37.77585954,88.794765,-12.46942893,133.623692,-48.79106401,0,74.54957199,68.98053168,-1142.435763,-319.7065511,,,,
123.6639999,483,0,-82.89899001,64.35426532,-8.935603498,-78.23549993,34.41877345,-9.592994918,71.43805982,-21.81505485,133.9673226,55.49805383,0,57.46944804,44.20426775,-1136.729631,-373.6086832,,,,
123.6719999,483,0,-129.7676684,72.0949951,9.392568331,-64.55592982,38.89992403,-10.94754178,45.23768922,-92.72559222,48.57502286,-47.89120712,0,-16.72295355,-35.00757479,-1131.016729,126.7716493,,,,
123.6799999,483,0,-52.60224077,92.87841958,27.53652585,-81.21472094,53.11484106,9.157005039,72.89118911,-26.60153082,112.373991,-42.97196051,0,57.09725075,24.82022821,-1125.297227,-332.9868571,,,,
123.6879999,483,0,-103.4713821,33.52091726,-24.35100915,-125.5875276,11.11378197,-37.32248349,40.30532688,-29.11056519,125.8875379,44.12466914,0,54.96151565,27.93254203,-1119.571295,-442.7746235,,,,
123.6959999,483,0,-89.70124331,73.32234494,23.02630577,-72.79211151,51.56569584,0.038281358,59.51434697,-52.22868026,101.3796775,-28.91897414,0,24.82327269,16.76739551,-1113.839103,-163.0178007,,,,
123.7039999,483,0,-96.61887859,51.28318858,-0.533489038,-105.1847483,24.22497302,-9.335310611,55.33002739,-46.3969968,111.9478905,-3.223681052,0,25.72883295,27.3857497,-1108.100817,-299.0362003,,,,
123.7119999,483,0,-141.8881379,1.148769695,-47.62782421,-149.7016164,-11.36435179,-62.65814697,-9.159570001,-66.49247801,83.37114853,10.38283484,0,4.684267073,7.16536237,-1102.356607,-364.5333684,,,,
123.7199999,483,0,-114.5722414,44.68569234,-5.011854923,-106.4137893,23.40641423,-22.83695854,41.29416147,-74.71638364,67.09918214,-37.78914674,0,14.56564194,-1.846036181,-1096.606642,-207.7343605,,,,
123.7279999,483,0,-30.1732005,91.21832004,39.71096955,-58.88387021,65.95930002,29.29223385,115.718685,8.309438059,154.2997443,-2.647164763,0,96.5084995,64.47297558,-1090.851089,-359.5883826,,,,
123.7359999,483,0,-58.33430819,72.66967918,27.88148635,-77.2062541,65.62774517,7.874459202,86.26784219,1.855453178,164.4226163,45.7110517,0,76.31749906,57.25904528,-1085.090114,-288.174535,,,,
123.7439999,483,0,-37.8707189,113.6146326,72.15718455,-48.55967542,106.8717688,41.88523958,102.4047034,-18.85805837,135.1164047,18.45376438,0,60.97407265,44.4436209,-1079.323882,-135.3188966,,,,
123.7519999,483,0,-10.2427695,113.0889459,69.07005098,-50.54916638,97.44157052,39.44209881,108.3183319,48.02234199,182.8219123,96.0726437,0,121.6492189,112.6399237,-1073.552561,-368.6299114,,,,
123.7599999,483,0,-93.98026189,68.27227273,25.92248476,-89.39536793,39.4517838,-0.629881989,86.62648343,-4.170378047,132.4053649,70.93913757,0,66.01016084,50.95837854,-1067.776316,-116.2052447,,,,
123.7679999,483,0,-46.06930539,78.22917269,38.57743541,-88.76142771,52.23289923,4.841077886,81.61896878,16.09188316,144.0187227,-9.184171976,0,92.31741941,46.00628417,-1061.995312,-313.6619626,,,,
123.7759999,483,0,-92.15876711,41.18269466,7.404734679,-112.263665,22.96623875,-22.19758483,49.79302957,-11.47817118,116.3058454,40.64859312,0,61.12249972,26.20037189,-1056.209712,-348.2746501,,,,
123.7839999,483,0,-65.96306309,93.4408158,64.88830148,-36.44516336,69.61831122,34.73969774,100.5642321,-40.10037097,84.57514672,-8.30178691,0,29.43500615,-1.993823631,-1050.419681,-107.2289863,,,,
123.7919999,483,0,-38.053316,75.12539937,43.79770868,-48.13066725,61.71929529,21.1758384,81.19297485,30.6318775,159.6047607,71.98027744,0,101.6120734,64.98854303,-1044.625381,-422.9388545,,,,
123.7999999,483,0,-132.5618132,23.53469854,-14.5603169,-100.7707285,8.180558622,-22.91494311,50.71116249,-35.13884107,98.5614859,59.61892418,0,36.3779207,24.48742437,-1038.826975,-130.9541769,,,,
123.8079999,483,0,-44.58337921,63.57944237,21.55689901,-70.62020241,51.59793409,6.813208641,86.82814503,2.208214953,125.6909971,-17.33668932,0,74.92205543,44.47012107,-1033.024627,-324.1661916,,,,
123.8159999,483,0,-79.38984158,31.95861325,-3.718703397,-92.90035273,39.00369138,-17.93783069,43.25932526,-19.34174906,121.3521629,52.38578987,0,61.66692905,26.10912437,-1027.218497,-369.6610417,,,,
123.8239999,483,0,-60.25559988,76.47295379,41.5904134,-42.24593164,72.85428074,20.49773226,78.02439922,-52.25774584,90.38065768,-3.096353707,0,18.43687825,6.889051261,-1021.408746,-93.44755004,,,,
123.8319999,483,0,-43.52637673,36.10502686,0.72276973,-85.93571396,40.45963991,-19.93133797,55.74165438,13.84320205,152.6261114,65.45761088,0,73.10739195,53.93026408,-1015.595536,-440.2844339,,,,
123.8399999,483,0,-113.4449684,13.30759455,-16.85041266,-119.5425838,25.93701386,-33.12143383,39.18478892,-51.75946873,96.72901889,42.75651734,0,24.53855657,2.283055322,-1009.779026,-140.4904857,,,,
123.8479999,483,0,-12.45357361,75.14869824,45.4045686,-62.08499167,81.60040137,20.04746714,95.74754793,-1.239915003,143.0259109,-19.06102641,0,79.57077477,53.11991093,-1003.959375,-320.8040367,,,,
123.8559999,483,0,-77.76488134,16.32390456,-6.63318157,-102.1892878,32.47032769,-30.37947657,43.16533688,-12.41598099,114.6203887,61.76537365,0,62.08653707,54.46811262,-998.1367431,-347.7892458,,,,
123.8639999,483,0,-49.49990781,77.6745235,54.85049101,-47.16452309,76.45071873,22.74380427,81.5525219,-37.59587086,73.36863298,-3.717942917,0,33.49635887,20.90251417,-992.3112882,-69.73775394,,,,
123.8719999,483,0,-25.16172751,59.65789761,31.75112315,-67.96122699,57.99351917,3.362844423,68.60176942,23.01254905,156.9703336,67.50854222,0,96.92409205,53.28902629,-986.483169,-428.9495982,,,,
123.8799999,483,0,-113.7510171,22.61843616,-1.848345065,-106.7756793,34.36806747,-28.43681777,26.70690648,-43.77391973,93.18996312,47.30227242,0,34.90337417,16.63169385,-980.6525434,-124.117451,,,,
123.8879999,483,0,-13.57516819,80.51548163,54.71472756,-54.62878595,81.97069228,21.0552627,80.41954621,9.541093562,142.2445801,-19.26436091,0,77.83969916,69.08441171,-974.8195661,-318.115619,,,,
123.8959999,483,0,-78.8155019,18.62976147,-7.474245904,-98.11768875,19.29568281,-26.68632105,61.21751411,-7.515297315,130.6122568,59.42349873,0,63.3395803,49.05259938,-968.9843942,-355.4737815,,,,
123.9039999,484,0,-37.36998782,89.90055619,66.2482824,-30.88396517,86.16337993,34.20777565,105.6362536,-41.64192376,76.9322976,-18.84538742,0,30.88355261,12.21932205,-963.1471849,-97.24925201,,,,
123.9119999,484,0,15.64630591,100.7079296,81.64165609,-22.12830073,104.6868829,42.52016315,100.1260864,48.43063425,187.3583663,72.99288195,0,106.9735789,84.4535319,-957.3080924,-430.3881377,,,,
123.9199999,484,0,-98.93363919,29.8577914,16.50442402,-67.65591249,35.97845564,-17.48994729,57.35294663,-3.117739521,135.7366809,77.07126802,0,55.89691028,47.71860555,-951.4672701,-84.1382281,,,,
123.9279999,484,0,-21.91680477,58.39089917,45.39511645,-26.27210729,56.32040385,-3.002322685,93.60024423,13.13375638,138.9835125,-21.85002131,0,74.87826962,64.92272052,-945.6248743,-310.7309466,,,,
123.9359999,484,0,-84.93643029,7.466820518,-1.169656843,-83.33240193,18.22520475,-49.81721671,37.16595577,-16.69353031,114.6829966,41.01995336,0,41.3829148,42.27908175,-939.7810585,-359.8189935,,,,
123.9439999,484,0,-96.41330933,31.31250338,28.19405627,-56.0613394,44.25699658,-8.04177917,31.63144472,-75.41121161,30.56827167,-47.40260602,0,-15.21809284,-18.9268935,-933.935973,-103.2177241,,,,
123.9519999,484,0,-63.27361971,14.68953369,12.89335344,-61.00290774,26.72454343,1.399529317,63.49916506,-23.35493014,101.8581589,10.28951425,0,44.73086585,38.58847953,-928.089773,-465.9205059,,,,
123.9599999,484,0,-128.5327234,-8.051717551,-11.15387216,-104.5217055,-0.624160309,-30.56321423,53.88586295,-60.80180013,69.98702318,20.21640267,0,14.84106762,15.5514535,-922.2426102,-131.1644167,,,,
123.9679999,484,0,-40.81501556,35.84019733,32.75186724,-60.59499518,48.5726898,-4.098630632,64.5268157,-14.40169477,104.1684201,-50.99729085,0,53.95039921,23.5025505,-916.3946351,-349.5600552,,,,
123.9759999,484,0,-106.7807915,-25.44792313,-21.25019481,-95.58482716,3.408205239,-52.09531068,27.45871768,-31.71114354,110.029418,27.00253972,0,23.88430007,24.55436497,-910.5459987,-375.5149501,,,,
123.9839999,484,0,-95.24029835,15.89088559,23.23811286,-66.1785044,35.24357255,-24.605279,26.41618017,-76.43849976,36.50156451,-39.63394065,0,-16.99401892,-2.287819429,-904.696851,-109.4135458,,,,
123.9919999,484,0,-57.20835904,5.534436766,15.11627115,-73.89470226,26.50748631,-29.75847674,34.57841179,-23.63031215,88.89089867,13.99059435,0,41.76476158,21.26054826,-898.8473426,-481.8515387,,,,
123.9999999,484,0,-111.8934873,-8.883461698,5.602700307,-71.07189566,11.44551286,-34.53117829,46.8730146,-52.26040303,72.60786079,28.00528217,0,11.29563636,10.54236503,-892.9976205,-134.5562051,,,,
124.0079999,484,0,-28.54829637,34.13335251,44.3286107,-25.12707043,46.00080079,2.505412604,69.68027442,11.70662722,118.0734385,-16.77545338,0,72.58458457,55.68968927,-887.1478344,-330.1756421,,,,
124.0159999,484,0,-110.5937263,-38.10585213,-24.4519773,-88.69989683,-19.3489809,-53.38855803,43.75996172,-27.71357005,91.02382506,34.91904443,0,26.57126337,-0.549835477,-881.2981337,-378.0939656,,,,
124.0239999,484,0,-71.18155916,30.94097277,54.5366343,-24.17709461,47.57591092,12.61711289,80.20096736,-62.93840315,30.13927928,-29.81597027,0,-9.321935894,-12.24325406,-875.4486639,-120.3357621,,,,
124.0319999,484,0,-57.12162243,-1.697049882,25.59553294,-56.81533282,21.30087085,-19.52460903,30.03483017,1.330728976,92.9923728,51.86646407,0,68.8586198,59.04683003,-869.5995718,-463.9221782,,,,
124.0399999,484,0,-156.0856562,-58.87390206,-28.05826246,-109.1068813,-39.61396366,-71.42818302,1.614954943,-81.18384441,18.96095557,19.87188852,0,-16.33964707,-32.14464999,-863.7510059,-148.8073995,,,,
124.0479999,484,0,-12.96478092,47.48424004,77.12561973,-24.05837494,63.18682007,31.22986676,100.5143043,-1.519845757,82.22271994,-35.87281392,0,45.52709304,33.30288838,-857.9031095,-361.2764274,,,,
124.0559999,484,0,-81.38563015,-11.06226013,23.84249539,-74.47466353,19.55250171,-20.11894749,58.44375885,6.122602961,123.1557896,66.3532736,0,64.37607297,62.8782956,-852.0560276,-348.0377934,,,,
124.0639999,484,0,-98.676487,-4.399354823,37.1630231,-51.29173147,20.34075306,-25.4984801,55.79909902,-74.59385713,30.62841056,-21.0831091,0,-7.25021218,-22.5507835,-846.2099055,-95.05325022,,,,
124.0719999,484,0,-36.93693433,13.40155549,52.90077084,-50.24090114,46.38875292,-3.800969809,62.4473168,-5.291564575,85.14197851,36.67366528,0,49.49438316,48.37263237,-840.3648869,-470.2203429,,,,
124.0799999,484,0,-122.2297932,-25.163728,12.28018927,-78.15003063,11.77265914,-24.75878709,18.59832698,-47.5547541,56.95377777,52.05735613,0,8.665280431,37.48563421,-834.5211164,-107.8014716,,,,
124.0879999,484,0,-52.98311854,0.054742714,29.56646061,-48.42841746,26.67910762,-5.493089026,55.15715582,-27.32022662,65.67272033,-28.85584637,0,35.84575759,25.53479164,-828.6787344,-330.5841737,,,,
124.0959999,484,0,-73.39198259,-24.37933841,-1.679938899,-78.34331576,8.482637025,-32.09694077,44.0110334,-21.48185743,82.09586796,41.81449731,0,39.00654021,27.30139392,-822.8378846,-368.3014859,,,,
124.1039999,484,0,-23.94994715,49.30970324,64.85874018,1.609296363,75.70856764,31.19066781,85.4056105,-32.37043037,74.2279931,17.3106371,0,24.81083709,21.42705813,-816.9987087,-75.80530808,,,,
124.1119999,484,0,-7.704066582,25.63028732,31.71636022,-28.17713627,58.55694517,5.759044468,73.50429474,23.95358231,136.7690454,79.86242683,0,80.52370246,64.22354544,-811.1613467,-431.4918316,,,,
124.1199999,484,0,-99.45234459,-27.63581467,-27.60154283,-78.70825041,7.895896709,-43.86904206,15.79117426,-48.72053715,69.980814,58.91910754,0,5.065419113,16.88718952,-805.3259408,-111.403226,,,,
124.1279999,484,0,-1.20033973,33.30829814,27.89004956,-16.91432171,63.97383274,12.87220991,62.19104085,-13.87460602,106.5240578,-6.491319392,0,40.95722933,45.63272693,-799.4926287,-332.0990675,,,,
124.1359999,484,0,-53.34013901,-6.525039905,-8.590400893,-50.48169781,35.36878793,-15.69103324,45.48614011,-9.260633043,133.6804209,60.17969757,0,45.98280346,50.79534015,-793.6615494,-353.7844229,,,,
124.1439999,484,0,-15.10285583,53.50354931,55.1311258,10.06555394,87.90512793,39.76274238,88.1347779,-35.2903585,92.43914874,14.18802221,0,15.24716509,24.36245439,-787.8328435,-78.58782539,,,,
124.1519999,484,0,27.6374728,48.6413051,55.67167464,2.224628949,88.44925116,42.82605241,111.4633815,34.84629931,149.738173,91.00224268,0,88.71004895,82.90093984,-782.0066483,-418.067981,,,,
124.1599999,485,0,-69.69302557,-9.390369943,5.868060476,-40.3413752,31.21505276,-4.038841011,65.7954173,-26.59569867,95.2241149,83.46029447,0,34.53428645,40.65566489,-776.183101,-72.23909716,,,,
124.1679999,485,0,0.504358567,23.56412089,40.80564716,-17.34590432,58.15087088,16.01175029,62.08172794,-5.39883217,111.1867241,5.358825989,0,51.72080128,56.40727807,-770.3623396,-301.5234905,,,,
124.1759999,485,0,-61.39612247,-36.43802161,-9.015723782,-82.53977758,13.58980471,-30.76531007,18.26769855,-29.15848899,90.32623738,42.7536919,0,23.55946025,44.76979182,-764.5444987,-335.185895,,,,
124.1839999,485,0,-38.67701517,2.924006992,41.09025604,-33.768367,53.23044991,8.243526284,44.71367372,-74.83301967,39.51388469,-25.87634217,0,-15.46433512,7.153335096,-758.7297143,-84.21336,,,,
124.1919999,485,0,-12.39789256,-4.716225266,37.01473479,-42.07524226,44.51156649,-0.50987636,47.0962095,-10.40141433,98.58611585,37.79027522,0,49.97181666,55.39660385,-752.9181227,-448.4047378,,,,
124.1999999,485,0,-61.01012744,-9.818507115,36.32170239,-42.99738252,28.99878445,8.579829222,60.02474885,-55.77476663,41.98220216,39.45102762,0,4.207973999,13.05507358,-747.1098554,-103.0393607,,,,
124.2079999,485,0,48.06165954,56.74935255,105.7978538,11.75162351,91.42079152,65.65560001,108.1164175,27.72963152,110.4561765,21.81722891,0,84.92689846,82.66491013,-741.3050487,-296.8919307,,,,
124.2159999,485,0,-33.25209187,-15.59250929,35.48538565,-59.02588416,22.26923772,-1.547838207,61.12440138,27.76484949,99.27223953,82.96142847,0,78.94056435,81.55686395,-735.503837,-305.1632736,,,,
124.2239999,485,0,-19.22325284,13.87947801,69.18732136,-19.62686114,45.57973132,32.5066978,92.80650061,-50.37274272,13.01420611,-9.536377112,0,3.964586925,-9.855990487,-729.706351,-76.33023665,,,,
124.2319999,485,0,-20.92341282,-23.86403032,38.83947505,-60.37235956,27.73089814,2.945810895,56.63351623,-3.634058366,72.32510292,50.47820091,0,44.28895083,29.394828,-723.9127228,-444.1228323,,,,
124.2399999,485,0,-121.0650664,-70.85117405,-7.608642231,-104.0414345,-21.12582509,-37.62666452,-10.96372412,-73.88591389,-9.091177537,21.23516935,0,-25.42703473,-4.033599686,-718.1230839,-108.7733608,,,,
124.2479999,485,0,-4.52699776,1.750779483,61.93025567,-37.49123686,41.53175537,23.89651597,47.28426331,-18.5009305,38.54214858,-35.00665788,0,39.80473325,42.35637576,-712.3375649,-341.5151371,,,,
124.2559999,485,0,-55.26942689,-41.80797459,23.1380789,-64.37841239,-0.465619273,-3.688723804,50.31243369,3.176009923,73.0050541,46.9118718,0,45.34388612,47.75005225,-706.5562967,-340.9706258,,,,
124.2639999,485,0,-36.23428396,-2.397139887,69.52589477,-16.07232822,27.31655226,39.5236483,77.86826533,-44.35668873,4.375148755,-20.69017898,0,-8.794406194,-5.761099038,-700.7794096,-95.13190305,,,,
124.2719999,485,0,-9.02872302,-19.58961605,66.63912152,-41.58613042,29.58708476,29.5565897,75.74867362,19.53310738,56.98587256,54.11734286,0,66.34987926,42.89990418,-695.0070313,-451.0655756,,,,
124.2799999,485,0,-89.0271236,-53.90239311,42.30806691,-62.13442038,1.335914884,10.38667432,53.6546837,-30.22852841,3.588818472,44.17477342,0,14.81500462,14.95022207,-689.2392912,-93.13505927,,,,
124.2879999,485,0,3.752215379,-0.235812979,88.81231077,-23.55124632,42.77454452,53.15644552,85.73234144,1.006857513,32.92574339,-24.91136797,0,54.16118406,59.01184478,-683.4763156,-335.6328106,,,,
124.2959999,485,0,-60.60787416,-61.34167452,25.9270436,-95.18278346,-15.33626348,-3.552269478,46.69462646,6.195823775,51.97958212,49.8267463,0,61.1539523,54.99026574,-677.7182328,-341.4601046,,,,
124.3039999,485,0,-43.40214934,-22.66800048,71.81653275,-53.8206607,25.70831617,30.55824499,56.81067554,-34.08768336,-1.909594319,-17.93587335,0,7.69237448,13.0812155,-671.9651694,-103.7701767,,,,
124.3119999,485,0,-23.39054855,-38.74470495,60.73344142,-70.51499173,29.63260626,21.05989817,52.08241655,11.27880313,40.54682086,51.62081775,0,55.17431573,66.54603293,-666.2172507,-460.3364981,,,,
124.3199999,485,0,-110.1652761,-88.72023958,5.83451334,-103.0686668,-24.75046448,-11.52233277,27.98850877,-43.477706,-15.2994266,42.55120272,0,-1.524223633,7.605436398,-660.4746025,-99.6796132,,,,
124.3279999,485,0,-39.56306281,-57.14555887,32.90775047,-66.73491076,-2.348529836,11.72865277,50.0747152,-22.18619206,-1.205110658,-46.80198216,0,15.77309055,2.695272369,-654.7373493,-373.7562408,,,,
124.3359999,485,0,-114.8966066,-113.5407158,-14.55307956,-121.9716174,-39.22311507,-40.64493009,13.00370553,-37.19905452,4.601750731,5.268278874,0,7.723516016,-3.896225337,-649.0056164,-390.3588185,,,,
124.3439999,485,0,-88.80207475,-61.84046842,38.13709523,-78.65816213,18.37599766,2.680074044,28.65767666,-76.40444196,-39.48310192,-67.70091901,0,-34.76665919,-15.71837039,-643.279526,-147.1169886,,,,
124.3519999,485,0,-73.90442743,-81.91519639,12.98967084,-99.09650252,0.865812158,-18.61534474,9.009659808,-34.90142351,-9.87068121,2.485398907,0,-2.411067482,24.70134321,-637.5592008,-502.6683946,,,,
124.3599999,485,0,-155.7792086,-121.8745562,-30.78066524,-138.7196802,-48.35425131,-57.08737615,-24.87760782,-81.48588072,-60.58664227,1.955194892,0,-44.01696013,-37.98030183,-631.8447636,-145.4111512,,,,
124.3679999,485,0,-71.95701532,-71.01831646,14.61236338,-104.7316922,3.194874862,-22.2245017,15.02668835,-49.29258895,-16.68985938,-81.03015266,0,-3.23174549,-7.623013911,-626.136337,-416.9239581,,,,
124.3759999,485,0,-115.5725638,-89.22787832,-6.327118206,-116.5662915,-9.73935946,-29.83686233,22.7038415,-52.18362431,4.1391509,-14.06802705,0,-6.836114777,13.49397981,-620.4340397,-400.163014,,,,
124.3839999,485,0,-47.04551528,-0.384195651,75.8772476,-21.97945043,68.60115146,52.96774241,73.39366826,-28.1133806,24.60413105,-28.79021937,0,10.2938048,32.36696371,-614.737993,-124.1722012,,,,
124.3919999,485,0,-46.08888917,-36.82855419,40.04867064,-55.28189209,49.18473861,14.68790862,51.75923373,19.94128377,87.78133726,59.97051503,0,55.34121454,67.69865169,-609.048318,-470.1597842,,,,
124.3999999,485,0,-139.0820897,-80.30547713,-11.3380943,-102.7700632,-5.987708464,-30.18257921,22.77898171,-62.9868378,-8.842059988,29.20357216,0,-28.23498051,-15.58689302,-603.3651327,-119.0868643,,,,
124.4079999,485,0,-48.67639077,-26.09567236,25.06210219,-55.05336561,33.96959686,-3.380958859,28.40157497,-9.96989667,37.25706834,-37.71710128,0,25.27705304,32.31786572,-597.688556,-384.2737382,,,,
124.4159999,486,0,-123.3130607,-77.49927585,-32.13180129,-117.4990003,-8.606730158,-56.70906639,-22.41784284,-40.30179953,36.96057131,16.74302422,0,8.150307983,49.57277019,-592.0187055,-368.7998859,,,,
124.4239999,486,0,-60.33903235,12.50802802,42.58252475,-49.54702608,56.99325707,21.12218664,50.68052383,-69.31779522,-3.282212666,-52.14884786,0,-16.95593841,17.20526461,-586.3556985,-127.1295623,,,,
124.4319999,486,0,-42.66094913,3.780125379,16.17171203,-56.16533566,46.40535629,-10.20992853,25.2668549,-1.504053317,89.84431347,42.84456707,0,46.23702816,45.31679602,-580.6996516,-469.878694,,,,
124.4399999,486,0,-145.4217452,-35.76400767,-44.27377573,-111.7497125,-7.452044362,-62.99832148,-26.29137698,-69.40422772,35.05356017,26.37305114,0,-23.60993458,-3.868616579,-575.0506819,-110.6659696,,,,
124.4479999,486,0,-48.81911627,33.37551939,-1.467377892,-47.2212483,43.90094856,11.00621445,41.75994942,-34.34061653,55.83559663,-57.63777581,0,6.183113487,15.50201294,-569.4089033,-389.9609037,,,,
124.4559999,486,0,-108.569052,6.080919375,-42.21751462,-66.19286956,27.42061948,-11.8558656,12.03823566,-48.57152941,50.713958,5.161814137,0,4.548239288,23.84139354,-563.774431,-354.822667,,,,
124.4639999,486,0,-70.15549729,78.27426653,9.745472972,-27.71834279,72.78796641,28.26025194,56.17323388,-64.17775141,29.87935951,-51.85507308,0,-3.028965693,38.92578147,-558.1473798,-102.7617976,,,,
124.4719999,486,0,-68.25481425,53.45821368,-30.09275843,-55.44175118,40.36973071,-0.453636275,48.710622,-16.78306507,98.44390264,25.64457604,0,29.79784668,50.15123506,-552.527862,-456.4281835,,,,
124.4799999,486,0,-154.77201,25.6887943,-59.77289855,-96.03413436,23.47228858,-36.04469687,-21.62840773,-85.09158265,25.31007951,1.43808295,0,-37.55575469,-14.83359314,-546.9159925,-104.5855253,,,,
124.4879999,486,0,-56.22437068,91.8219096,-8.124847484,-66.08240505,77.26942549,8.419988738,19.74550102,-28.6716077,73.49399395,-61.94344347,0,25.10199939,52.37514489,-541.3118823,-366.168142,,,,
124.4959999,486,0,-108.3025277,60.32455624,-46.61580369,-78.05427406,34.98565603,-14.65084144,22.22769415,-21.53626108,95.17919708,16.00343727,0,25.74278431,45.68085575,-535.7156429,-323.9095327,,,,
124.5039999,486,0,-71.66944323,112.0847345,9.146037199,-26.0556687,78.92767629,25.60591986,41.14140505,-34.78686386,63.58228915,-42.30357726,0,12.36301093,20.63076918,-530.1273854,-98.9561122,,,,
124.5119999,486,0,-74.8536728,74.72717913,-28.29058195,-76.25617409,43.55148137,-5.654964747,30.14354149,-17.08905575,85.29716292,18.22004018,0,32.39345025,37.79681166,-524.5472201,-450.4286723,,,,
124.5199999,486,0,-126.570322,70.26435267,-28.40121502,-79.70249712,42.00649954,-8.800744455,13.34349772,-65.06939082,19.14834633,9.503868637,0,-19.89894207,-10.56235784,-518.975258,-83.87681773,,,,
124.5279999,486,0,-28.19929229,123.3920385,25.04997833,-39.13915528,99.86770048,24.17435412,29.84000489,30.56215034,100.692433,-15.12336375,0,68.3737244,84.54020684,-513.4116066,-330.8110426,,,,
124.5359999,486,0,-112.3256553,65.54089266,-34.77538832,-86.45688366,34.46102925,-17.93084121,20.92945848,1.601857183,96.32437915,37.07889088,0,41.75473559,57.48247119,-507.8563758,-294.2268689,,,,
124.5439999,486,0,-79.00162506,118.3063201,22.61697146,-36.33869001,81.26234629,29.56670549,51.0089171,-37.43978849,37.96268356,-47.18040881,0,7.312316261,6.212741045,-502.3096731,-99.88131093,,,,
124.5519999,486,0,-63.00630543,97.67508255,9.719245747,-59.56932134,80.03951004,6.376044447,30.38914749,2.405931376,75.38779838,33.58960518,0,43.95849276,71.10396286,-496.7716042,-435.6136756,,,,
124.5599999,486,0,-101.9741183,99.86422297,16.05967624,-40.48296275,78.30545536,16.87483159,47.39928117,-28.95644971,51.88627675,36.75600231,0,16.34546968,45.01412511,-491.2422768,-48.43587849,,,,
124.5679999,486,0,-31.04092632,110.5732896,28.01300385,-26.78883077,85.450784,18.37880498,49.37106063,36.44549467,111.4429906,-6.874703737,0,77.5192398,83.03254132,-485.7217975,-315.7985972,,,,
124.5759999,486,0,-133.8512013,29.93193313,-49.11336838,-110.9545193,6.473463556,-52.34340358,-9.834367528,-37.7142817,44.35071431,5.704713638,0,-5.474908188,20.23372731,-480.2102721,-303.9892304,,,,
124.5839999,486,0,-59.41461347,131.507935,52.69872212,-28.82628606,97.67428222,46.06951613,64.03085267,-48.11921625,20.07303013,-72.50969389,0,-6.342815198,-1.928461151,-474.7078039,-108.5110449,,,,
124.5919999,486,0,-33.11442427,114.7929159,42.30992256,-43.2961481,97.02414889,32.6497664,59.0109964,37.64612844,115.5387112,51.56024161,0,80.06844323,83.31541485,-469.2144975,-413.2960142,,,,
124.5999999,486,0,-135.4411275,49.93681215,-18.8890921,-100.6706305,35.97813993,-31.47194225,-2.823988949,-37.99528213,41.15551646,28.00108721,0,-4.567789563,26.26137014,-463.730457,-45.92953354,,,,
124.6079999,486,0,-54.23773533,82.58455882,10.89783655,-72.17942592,69.13508331,-5.228718478,22.02345015,-2.921007687,54.21820625,-57.7596805,0,32.40267312,57.4023138,-458.2557838,-351.8707166,,,,
124.6159999,486,0,-103.3303004,54.82262764,-9.861955581,-71.78157941,46.62462377,-12.55220618,32.01945462,-15.72888987,59.05725819,0.513881342,0,16.63328157,51.57107208,-452.790582,-301.3197038,,,,
124.6239999,486,0,-55.26332951,126.6491134,61.0675762,-2.55132898,107.730721,47.98252676,73.15656106,-15.57540939,65.15027701,-48.67075424,0,10.68446259,37.76029648,-447.3349517,-80.20482091,,,,
124.6319999,486,0,-55.61763536,102.1207145,32.82317329,-47.2211646,87.37980613,24.175385,52.91748971,21.06004436,99.25922252,38.27397343,0,55.84093262,72.73753188,-441.8889937,-402.0331107,,,,
124.6399999,486,0,-136.8279807,70.42306027,5.213675542,-64.81115716,50.32893486,3.299723813,25.72722802,-41.09108979,36.76737248,19.24552896,0,4.377787795,17.59003198,-436.4528094,-34.87447056,,,,
124.6479999,486,0,-44.75562456,107.276385,47.8316237,-25.23897413,100.2301744,33.60833451,43.82852944,23.99729219,97.89932293,-34.33691034,0,60.77395192,82.45080273,-431.0264975,-317.8291792,,,,
124.6559999,486,0,-118.8922294,47.60547376,-6.256362598,-81.85363141,52.48471287,-7.162099062,25.06758546,-13.81213993,55.0719658,2.561989107,0,19.14569427,73.98122142,-425.6101584,-261.4683782,,,,
124.6639999,486,0,-67.63272012,110.0468189,55.8741066,-9.259614773,96.48313964,51.53406407,84.63347408,-19.26101584,36.64793976,-66.85444818,0,16.84746333,47.82030416,-420.2038894,-75.13009877,,,,
124.6719999,487,0,-35.24198462,108.3381606,59.41261765,-2.519813444,105.3198718,52.67212208,94.34320526,43.80303153,107.1121756,40.61680566,0,68.57623804,96.67561618,-414.8077882,-392.4664097,,,,
124.6799999,487,0,-122.6832104,68.98859452,21.64293201,-40.92395506,63.08356399,13.16859523,48.69163123,-21.70571057,27.30997327,23.80722746,0,2.280390351,43.3611234,-409.4219531,-10.47771557,,,,
124.6879999,487,0,-51.55566261,85.18631536,36.04866326,-43.49280027,76.55356326,11.70785221,25.81513408,30.90352225,81.62687705,-40.44742597,0,61.93105907,70.72271902,-404.0464791,-319.0300484,,,,
124.6959999,487,0,-143.2726291,8.713808045,-33.37405601,-109.7599373,8.97602862,-51.04070962,-22.41717257,-19.18635935,53.02607346,-8.466664937,0,14.1903455,37.47191579,-398.6814631,-276.7536617,,,,
124.7039999,487,0,-130.4853677,32.31197239,-8.59228677,-68.96526044,24.91351707,-33.21248286,2.362485839,-72.83100439,-19.5063592,-118.357924,0,-40.15840812,-19.80996933,-393.3269992,-118.7636196,,,,
124.7119999,487,0,-88.23150912,43.73312384,4.288421689,-73.73856564,45.49452993,-27.76938878,2.567437453,-30.12503708,22.90725335,-37.12621616,0,-3.69735905,12.03178134,-387.9831821,-456.1757096,,,,
124.7199999,487,0,-109.4339248,73.06276122,30.95486138,-49.20381782,65.30800552,-0.262710727,34.58677765,-37.10456305,15.18143799,-3.282112698,0,-11.28995621,30.26744554,-382.6501079,-45.5596379,,,,
124.7279999,487,0,-12.13556814,122.440586,72.34889299,33.06735768,109.6859732,55.92434199,104.813307,49.58587058,102.2047158,-25.31886042,0,75.10667053,95.72070504,-377.3278689,-317.1402113,,,,
124.7359999,487,0,-81.33328086,83.26481699,31.90853179,7.418644285,79.55452801,44.19721477,67.79542177,24.11683981,84.83471672,29.39294864,0,50.02819047,72.82563065,-372.0165564,-229.5254168,,,,
124.7439999,487,0,-59.54243265,118.9086927,57.94184557,-3.744157351,101.126181,62.42558243,49.84107587,10.25621507,57.02095924,-35.19668918,0,46.28565858,70.01165817,-366.7162639,-31.05172537,,,,
124.7519999,487,0,-90.64975837,52.0991714,-13.17347601,-73.93500297,37.89404656,-8.454002657,9.596244667,-1.873908445,56.55727915,17.22807202,0,39.79771858,51.63804042,-361.4270827,-391.616067,,,,
124.7599999,487,0,-156.8682061,38.94756486,-22.49259905,-62.70989776,23.67043807,-14.53559081,10.29764156,-78.1723269,-28.86427063,-27.55736566,0,-47.53632622,-16.59059973,-356.1491037,-50.3281218,,,,
124.7679999,487,0,-54.11083688,90.06211261,26.90767188,-24.38953266,79.41919607,20.26366844,36.48613018,8.506182194,56.02533412,-59.50521329,0,35.80719529,65.44912829,-350.8824175,-341.5946201,,,,
124.7759999,487,0,-133.9140644,21.92348509,-37.34227219,-84.9391337,23.79833986,-42.66488501,-16.64843934,-23.38404226,54.90139276,-8.443467082,0,10.78690938,40.39879431,-345.6271116,-258.6893797,,,,
124.7839999,487,0,-84.29060562,81.7243515,20.53842929,-29.66419956,68.32448945,11.67381439,25.39617081,-41.21010583,17.75763047,-94.9855531,0,-14.12477819,5.142741754,-340.3832762,-95.5893192,,,,
124.7919999,487,0,-72.45261539,68.21311413,7.518815444,-42.76378643,60.90921813,-1.025447375,28.33112975,-11.36803492,49.09264328,4.415840182,0,18.85535143,31.71412179,-335.1509997,-422.4314598,,,,
124.7999999,487,0,-139.7338659,51.74416364,-4.957930001,-50.30490907,43.04120073,-13.08552851,13.39122377,-51.50205914,14.92921548,13.60502178,0,-16.75283185,10.53809552,-329.9303701,-31.51375442,,,,
124.8079999,487,0,-41.3486095,99.88737107,38.47317832,-10.62498504,86.39483777,34.94817277,39.81529056,23.12426106,77.00946719,-32.85610182,0,47.49234582,68.38825874,-324.7214751,-329.2018386,,,,
124.8159999,487,0,-122.7678043,38.26216394,-21.12330322,-59.86266919,35.82522841,-14.33757561,-0.529840428,-16.83966665,40.02076128,8.474702844,0,8.501537275,45.69592101,-319.5243997,-243.0487928,,,,
124.8239999,487,0,-107.5172701,59.48793106,-0.194308312,-48.68981265,52.29134736,-11.7342589,5.325069116,-34.59840902,10.73689,-75.52055973,0,-3.289811695,28.45913398,-314.3392299,-85.99088481,,,,
124.8319999,487,0,-88.57497546,44.78913767,-12.81710821,-62.18874987,50.57599421,-29.47639651,-4.141424797,-23.02820485,44.49841583,-9.913663026,0,11.87294444,32.79823795,-309.1660511,-430.5709207,,,,
124.8399999,487,0,-98.85276841,81.77612575,30.26562134,-7.009487988,86.54363612,9.273917823,39.85568885,-49.25597721,21.99686501,4.015357484,0,-19.82107665,23.90446019,-304.0049469,-23.95693584,,,,
124.8479999,487,0,-25.29239711,103.2503913,50.68512695,3.246375057,107.3554109,11.8291934,61.26550838,57.62509631,118.7199226,5.94177236,0,83.00566121,107.6722336,-298.8560029,-295.2752251,,,,
124.8559999,487,0,-140.4174729,17.99813484,-34.99697131,-61.71484025,31.66410799,-30.84863303,7.646253071,-10.33646044,61.41840593,19.33722007,0,22.72695709,51.3642438,-293.7193021,-235.6473121,,,,
124.8639999,487,0,-97.56309433,88.07970598,27.85780483,33.30606447,90.12536504,88.29104652,65.13947722,-44.47893946,2.058564814,-84.97653135,0,-6.727299083,31.986107,-288.5949252,-90.80853758,,,,
124.8719999,487,0,-116.4579064,42.7937753,-20.60900491,-17.4450031,56.34433143,34.90953479,26.71648787,-7.107126734,52.48569179,15.16033317,0,39.14968699,66.8335651,-283.4829557,-389.2214445,,,,
124.8799999,487,0,-193.9944055,13.28133909,-49.1318067,-44.96721608,23.98729243,-6.7291755,1.804474282,-88.58450446,-21.30411991,-25.38184902,0,-45.08050891,-3.23568868,-278.3834753,-29.85194745,,,,
124.8879999,487,0,-119.1106434,51.73462643,-19.11521183,-3.154703496,57.13570971,34.61518088,27.50010497,-24.05921667,14.44720701,-71.56403597,0,14.05083404,48.46997981,-273.2965644,-359.1482253,,,,
124.8959999,487,0,-197.9566107,0.268389101,-67.04458325,-57.27181808,20.79687695,-19.23372878,-15.06084207,-37.12005622,2.343249363,-13.58326365,0,11.8611936,42.0708786,-268.2223022,-261.3039542,,,,
124.9039999,487,0,-115.7321927,80.07524143,24.33951527,25.97367069,100.0493027,57.25039753,45.8795967,-52.14616422,-16.96543811,-97.90216544,0,-3.487442861,26.44614759,-263.1607694,-106.4523031,,,,
124.9119999,487,0,-124.7440733,36.37009284,-15.10572221,-6.06679808,64.60939338,23.87666214,24.84033875,-18.22851969,28.62675216,3.560487363,0,28.03918909,61.73625559,-258.1120448,-400.2796149,,,,
124.9199999,487,0,-193.5643484,14.76091339,-38.4456007,-27.25603509,38.00768243,-3.022075534,3.105505797,-71.88479481,-25.70311356,-20.32634819,0,-24.8968909,12.50232968,-253.0762061,-19.80178514,,,,
124.9279999,488,0,-69.56907682,79.59050588,19.04091443,34.97812105,93.57516423,50.76776816,55.51712366,0.768112972,46.48208689,-60.44983338,0,41.34235059,62.66723374,-248.053331,-338.3855768,,,,
124.9359999,488,0,-145.6343387,11.73344904,-46.85096644,-15.48218539,28.34532141,-11.60180165,17.91510485,-10.76958452,50.96575674,9.133561388,0,27.08371147,60.69217458,-243.0434956,-221.9764678,,,,
124.9439999,488,0,-92.12073681,66.5784286,16.11963006,30.05555846,88.99791855,34.8624285,42.59497972,-29.07822214,2.490272005,-74.97609046,0,12.68979527,43.66160378,-238.0467781,-81.5491826,,,,
124.9519999,488,0,-79.86153694,56.83550463,10.76532416,1.562298123,97.31171138,29.7513626,41.92640003,-1.235724321,32.64017176,18.97693341,0,46.82838491,79.73968063,-233.0632534,-385.2744668,,,,
124.9599999,488,0,-148.2561485,25.88726256,-18.31429732,-9.258934038,57.85732308,10.01053086,30.22475996,-41.21278974,6.4181372,13.52412829,0,-4.611459418,49.6988741,-228.0929964,9.075229211,,,,
124.9679999,488,0,-70.71963583,30.98107694,-12.68032207,4.819601289,62.32400666,16.92448735,30.66454662,5.592454448,48.48979694,-40.84481083,0,34.44866559,72.46874163,-223.1360815,-326.7025927,,,,
124.9759999,488,0,-160.4315326,-45.00928907,-82.35642927,-62.9398367,-5.922206565,-42.49768405,-18.34177095,-51.90502283,8.484369196,-20.49694292,0,-12.36044479,25.18349418,-218.1925822,-242.1211653,,,,
124.9839999,488,0,-78.49368426,32.49544898,-3.31749818,24.0364853,53.2541116,31.98439894,50.57179176,-56.14295332,-4.958603295,-102.4933505,0,-23.68927873,15.61347811,-213.2625731,-106.7404396,,,,
124.9919999,488,0,-70.45456584,8.417504601,-25.94359794,-4.584621553,35.99464877,4.676693499,37.53079523,-10.50495255,35.18533667,13.94850707,0,25.1080751,41.15017503,-208.346126,-391.3953031,,,,
124.9999999,488,0,-169.5923456,-43.56981056,-69.24745951,-49.72106324,-4.452132967,-52.40737104,-41.45505636,-85.85506281,-37.32443365,-18.8721887,0,-49.54280009,-32.51845839,-203.4433132,-21.77859245,,,,
125.0079999,488,0,-62.20893359,7.513317109,-19.95895841,-15.14700356,47.62733261,-17.70565844,-26.49127,-35.60114998,16.9760873,-77.98374891,0,-20.14957632,27.86451606,-198.554206,-372.7393855,,,,
125.0159999,488,0,-99.82670569,-7.288524303,-40.53978423,-35.8885796,23.88943355,-27.10294461,-11.22072194,-31.39757506,24.0860714,-7.711504157,0,-10.03303178,44.99967571,-193.6788744,-239.3874468,,,,
125.0239999,488,0,-29.23139022,62.44194782,29.49787794,56.29441029,80.99785139,37.43176988,48.77849017,-11.4401273,41.80967618,-60.6578778,0,22.85685967,42.92054722,-188.8173885,-81.84059115,,,,
125.0319999,488,0,-34.05262609,27.9846383,1.269111035,33.53256778,59.51558161,8.103006191,36.0314224,19.86984631,90.09974755,47.55363855,0,57.10758841,67.06195752,-183.9698187,-366.4768841,,,,
125.0399999,488,0,-98.82176828,9.82834094,-12.14267777,18.57582569,43.14977263,-4.586620185,25.92021789,-44.50097397,-11.58499438,17.16843753,0,-29.45147096,3.694981325,-179.1362338,15.85943526,,,,
125.0479999,488,0,-4.01349856,49.89718288,21.92160229,47.38507988,83.64466413,32.288323,49.79985626,30.53034702,57.77637078,-14.79879665,0,38.78265444,76.85431487,-174.3167026,-307.0926761,,,,
125.0559999,488,0,-113.873033,-27.91132475,-57.09377892,-24.31615373,7.507365592,-23.17539326,13.2756866,0.353510193,53.18956186,28.01419225,0,32.94878454,65.70732818,-169.5112918,-180.8999203,,,,
125.0639999,488,0,-82.42225682,7.355219704,-14.6239418,23.52364773,43.71153344,19.12861861,40.22399443,-44.14880585,-26.24728911,-94.75206597,0,-24.51479029,16.2728487,-164.7200679,-83.33341912,,,,
125.0719999,488,0,-66.14729496,-3.533493761,-21.40694662,14.75575448,47.69061396,13.85997618,23.24153689,-17.53832148,27.19875828,3.756183949,0,5.962518644,50.2576996,-159.9430992,-379.4229885,,,,
125.0799999,488,0,-113.457615,4.743229874,-17.69268847,24.29968024,38.53568231,15.54130165,38.09277492,-46.43518012,0.123313837,3.178557254,0,-16.24300643,19.49109019,-155.18045,18.013554,,,,
125.0879999,488,0,-36.93891426,28.49263503,-0.337355215,49.21721845,55.13268438,27.29076628,53.87320892,23.15478373,41.28842137,-31.46451767,0,36.00512615,59.37860656,-150.4321859,-322.3174833,,,,
125.0959999,488,0,-112.3370569,-21.40920793,-47.97067472,16.17050423,15.17073959,-14.15411948,10.43199577,-6.454135373,22.81999796,15.89685264,0,15.74124936,34.08258804,-145.698372,-198.2217245,,,,
125.1039999,488,0,-48.15822144,46.65276657,20.98577503,73.20973233,78.00378237,38.49954493,60.19344956,-9.999931616,3.906459643,-65.68438315,0,12.13940651,39.23339615,-140.9790713,-71.20786703,,,,
125.1119999,488,0,-68.40337746,-4.786073842,-25.16037112,8.867400979,43.63519155,-10.57511757,6.411588027,0.259407139,39.1945758,26.01861137,0,24.69557693,64.49440738,-136.2743473,-354.1404085,,,,
125.1199999,488,0,-117.3056615,-11.98053555,-26.98055452,18.51512495,34.79922095,-9.964828444,-2.307688026,-59.97151794,-15.38227054,-2.782925974,0,-25.66326322,7.693196285,-131.5842643,27.92669282,,,,
125.1279999,488,0,-32.26621928,14.40059171,-6.586161069,47.49604732,55.95917654,8.640575934,39.57234239,11.23090433,45.44233962,-36.59772874,0,35.12532023,57.50955373,-126.9088833,-315.2998425,,,,
125.1359999,488,0,-99.88108416,-31.2021303,-50.23943314,0.395429756,19.22910166,-30.11494947,3.784719877,-16.87023814,18.90757208,14.23201738,0,1.019031306,38.51533112,-122.2482648,-183.0159491,,,,
125.1439999,488,0,-18.94367994,49.44788332,31.13714278,74.50210167,93.15921636,47.59450877,55.78871137,-1.723446447,10.97342893,-48.08090038,0,20.6393654,52.03021762,-117.6024716,-49.36255311,,,,
125.1519999,488,0,-72.59984411,-25.95122727,-47.51797705,2.201112717,23.25015859,-17.44190795,5.604311506,2.884294267,39.90663355,34.45813535,0,26.28616411,53.21975816,-112.9715631,-342.6665583,,,,
125.1599999,488,0,-122.2128112,-22.37952505,-39.53813756,13.97523084,24.1849397,-7.452010868,12.02086572,-71.80542718,-39.5408712,-18.09794596,0,-59.82272543,-21.3687382,-108.3555991,6.832545627,,,,
125.1679999,488,0,5.196167886,48.02426168,28.29917659,76.93513069,97.59442301,60.6783334,68.09744315,39.06681446,73.21929884,-15.98645262,0,52.68491134,73.2210475,-103.7546388,-314.0709882,,,,
125.1759999,488,0,-90.65670541,-16.63618369,-47.28550176,13.89883233,31.47757433,4.054780155,14.70987144,24.17747523,66.97851672,44.95219991,0,46.23407073,68.88834753,-99.16873989,-156.5841192,,,,
125.1839999,489,0,-32.64548906,49.02816238,10.90117291,75.24117706,81.55979816,59.03787634,65.67845122,1.518695802,2.084858018,-57.39468123,0,16.40480533,39.30587131,-94.5979615,-64.92071052,,,,
125.1919999,489,0,-40.83724952,5.238232141,-27.44854779,33.53461872,52.34266646,18.91329809,35.33233068,21.80231377,50.92711617,49.40741697,0,39.14307445,59.2141675,-90.04236095,-343.1308784,,,,
125.1999999,489,0,-107.850546,-17.18865314,-45.0181439,12.02275779,30.72058737,-5.311695258,1.636461894,-44.36172193,-19.11601819,19.76988409,0,-25.30857409,1.159983863,-85.50199344,38.20846492,,,,
125.2079999,489,0,-25.27197344,12.98674032,-18.21776143,34.85759035,61.37438267,15.26682932,25.48795156,21.8512293,37.97510686,-22.36479301,0,33.76828283,41.56723967,-80.97691576,-311.8550698,,,,
125.2159999,489,0,-103.2577372,-40.22296313,-70.65232283,-12.76825861,11.36469788,-31.11857311,-8.518290052,3.96426003,44.45158668,24.14463294,0,13.80716738,23.83611225,-76.46718441,-165.9562634,,,,
125.2239999,489,0,-36.25106212,34.79878135,1.151775393,42.11967246,72.10979024,29.82553023,36.47523732,-10.63513609,-13.70115984,-65.08054652,0,1.551364648,18.91699209,-71.97285264,-71.0539629,,,,
125.2319999,489,0,-43.15732885,4.319467371,-26.33103016,8.679132658,50.49533312,0.367754855,23.20307582,14.85325566,29.97383802,47.58295236,0,30.52091108,56.64447905,-67.49397605,-335.7081041,,,,
125.2399999,489,0,-92.71873197,-3.107495332,-24.48192526,22.79436794,43.8092111,6.213943359,22.74980922,-33.4925211,-9.525831187,25.75439345,0,-15.88153453,7.211221825,-63.03060853,56.63177349,,,,
125.2479999,489,0,-14.61627489,21.91575455,-1.600855682,58.85036444,69.99858953,49.51309434,43.84580952,21.66533377,38.6486476,-19.53623642,0,41.01529223,44.6211211,-58.58280249,-298.5182115,,,,
125.2559999,489,0,-93.09685085,-29.29607684,-52.89543195,18.96566239,22.95958293,7.164992144,15.84570163,3.37354411,37.65064035,27.22206759,0,21.89889107,41.03376337,-54.15060937,-150.9226854,,,,
125.2639999,489,0,-11.04500214,49.23896263,28.06250981,70.47833576,94.7580482,50.43227186,61.26654029,8.898114759,0.071084112,-49.27190081,0,24.69769571,47.5474869,-49.73408242,-52.69987106,,,,
125.2719999,489,0,-20.15345925,11.32995715,-1.070945867,31.59001844,70.81358464,19.54472039,41.57679172,28.10721867,39.23643715,57.0402007,0,38.82657556,63.9461004,-45.33327311,-311.6542336,,,,
125.2799999,489,0,-84.66661164,-8.273819409,-14.93938776,44.59593489,46.05615057,29.13169438,44.16811498,-27.44480403,-10.92165157,26.19890552,0,-19.94218762,10.56577364,-40.94823027,77.85705247,,,,
125.2879999,489,0,-22.98792528,-0.158166932,-15.49486769,44.12956855,46.31276165,31.26321619,36.96481388,24.17187028,25.1660952,-16.76804156,0,35.77597593,49.44347966,-36.57900685,-282.0651451,,,,
125.2959999,489,0,-86.47109576,-37.49969744,-47.91143686,-3.727963474,19.88673814,-15.00422404,-4.413074769,-0.700056848,30.95604603,21.74035587,0,15.39206127,28.9702684,-32.2256512,-140.5867631,,,,
125.3039999,489,0,-14.09507874,35.58337849,29.00337074,68.26684686,93.69482288,45.01458343,49.41890497,12.60892942,19.82854386,-46.75943359,0,19.06136138,45.48328034,-27.88821132,-45.45165184,,,,
125.3119999,489,0,-57.84503812,-28.73219552,-39.19269188,0.116606275,31.33196225,-23.73414505,6.423909337,16.15484002,19.38948228,50.26685409,0,18.42220083,52.68797928,-23.56673638,-314.2005179,,,,
125.3199999,489,0,-90.3958029,-20.48903508,-29.966827,3.020314042,27.52405694,-10.32221683,14.45500354,-43.15016303,-41.43329667,8.069009945,0,-26.84090297,-18.16166397,-19.26127288,49.98681658,,,,
125.3279999,489,0,-23.72761563,-8.346008866,-21.45273366,36.14369111,38.47080949,29.05200037,32.052975,16.0086136,18.78786316,-20.73632355,0,28.97345754,36.04392696,-14.97186974,-303.3048276,,,,
125.3359999,489,0,-127.3171877,-76.11235751,-83.48404235,-12.25969407,-17.97959017,-24.18050481,-21.85818647,-33.12675043,-14.55917601,-4.915312576,0,-20.73178905,10.67998449,-10.69857309,-148.2150582,,,,
125.3439999,489,0,-25.51256686,24.76553731,22.0145659,66.99465544,79.43459025,52.77481389,61.78668737,-5.386131869,-4.51324831,-77.29338342,0,18.92407869,19.32325181,-6.441428777,-54.55135774,,,,
125.3519999,489,0,-23.78004686,7.750507483,5.000634194,57.24412146,70.07585352,39.74559239,67.45058626,27.67382186,38.85804399,51.26047662,0,42.45161261,51.47814142,-2.200482324,-301.4951788,,,,
125.3599999,489,0,-68.16304938,14.07940805,12.91396974,67.79835606,74.8486968,40.01413976,50.15842956,-19.19643445,-24.23461307,25.02557447,0,-15.43719159,18.92375997,2.024223227,88.39483309,,,,
125.3679999,489,0,-2.085897384,24.67514297,14.40094794,58.89460992,80.59184546,36.43912583,50.06210442,65.3072236,61.30081688,13.26276512,0,78.13471999,89.49068879,6.232640725,-252.9047679,,,,
125.3759999,489,0,-97.96884575,-39.68127891,-56.82381935,-7.604485323,8.454376394,-20.32604047,-2.960090688,10.64894189,25.25663812,32.85223225,0,36.33542819,53.04617155,10.42472759,-113.5758125,,,,
125.3839999,489,0,-27.3949898,39.17719821,12.06156545,45.42831821,69.57952614,36.07233937,42.57723206,-9.718575573,-16.69388586,-73.57749787,0,6.574074277,22.00035392,14.60044149,-64.89464977,,,,
125.3919999,489,0,-46.19238175,13.28835304,-23.07246966,7.124700814,52.35647158,-1.371106376,20.30982475,3.790433564,31.10604639,37.29129337,0,15.89520436,25.23237327,18.75973943,-317.4518472,,,,
125.3999999,489,0,-87.57216517,28.95557627,-17.02244402,27.5378401,59.97355287,8.462908849,10.67349948,-39.878744,-18.02925258,18.83681568,0,-21.01583071,3.792149885,22.90257952,74.39350434,,,,
125.4079999,489,0,-12.77235041,65.9296639,-5.637465897,42.06221525,74.52646973,25.62933427,36.81751817,25.51855126,22.28344468,-9.511570946,0,40.43879827,58.03922379,27.02891983,-281.0654682,,,,
125.4159999,489,0,-84.24951986,35.92437121,-52.52472523,-0.447734821,35.5806154,-14.96094193,9.267341709,-5.036284382,22.75052214,23.42028223,0,22.21700598,29.19797284,31.13872099,-111.9224026,,,,
125.4239999,489,0,-24.75168556,95.38627015,-6.210846241,51.51938895,85.52359401,29.70105827,33.0663699,5.517403163,21.48669869,-53.98496362,0,27.08422739,42.66679495,35.2319409,-36.81582169,,,,
125.4319999,489,0,-70.21216319,46.1437572,-70.768838,5.913601455,38.05866361,-1.235568758,6.148405838,-17.15288525,9.01097368,18.48214778,0,-5.979535989,18.76438263,39.30854144,-302.7834993,,,,
125.4399999,490,0,-75.22388309,97.02089748,-28.92720787,45.93896171,76.68508657,46.63692862,45.47529206,-55.92901796,-16.43985141,-10.82046742,0,-28.26968205,-14.58997974,43.36848345,81.56143263,,,,
125.4479999,490,0,-8.988154704,109.5472871,-26.99817551,20.17930006,85.07385577,30.78406625,36.70181729,38.77804408,59.57715268,-2.16522838,0,64.55482842,71.53499576,47.41172712,-257.3098081,,,,
125.4559999,490,0,-127.6043885,32.69776905,-107.9637717,-58.30333936,4.733837313,-32.99718517,-26.8703478,-33.89965279,-6.493759893,-4.445762372,0,-5.388245426,4.154534601,51.43823692,-113.440854,,,,
125.4639999,490,0,-26.1926802,131.8001029,-7.871218744,34.45405666,89.26968939,49.74052724,44.56243781,-15.55748814,10.08652207,-90.35182387,0,8.04009537,10.48748559,55.44797434,-63.18561893,,,,
125.4719999,490,0,-69.69310278,67.71324447,-66.47913992,-30.41877129,39.36969886,-23.66555576,-9.211629491,6.138385636,37.35128475,31.0736194,0,5.55021204,23.73221578,59.44090026,-293.7003455,,,,
125.4799999,490,0,-132.3557669,59.92082971,-74.26059107,-27.85088698,20.07792685,-23.98950203,-21.44167495,-79.24802406,-55.22151773,-33.26616022,0,-81.05375462,-59.93806572,63.41698077,63.33262916,,,,
125.4879999,490,0,-26.1514353,114.5616081,-24.56779891,3.858240206,66.08179773,17.78306124,13.37959662,12.47857324,31.50960726,-38.99182489,0,19.28030025,26.16351917,67.37618183,-297.9296542,,,,
125.4959999,490,0,-102.0074153,65.84438947,-63.50507508,-35.86722038,31.88786795,-21.61479848,-15.14657644,-5.765055634,18.71449669,9.203074375,0,12.61332672,24.06807153,71.31846548,-100.2744539,,,,
125.5039999,490,0,-35.89812399,123.1423903,-0.0641436,31.10353923,85.66446258,34.57481943,33.814159,-13.95260017,-7.720233552,-87.38055921,0,3.050431153,-0.366889331,75.24379821,-51.11668886,,,,
125.5119999,490,0,-79.21869704,65.83949983,-56.65504622,-35.61207449,33.94116892,-21.82517906,-16.88928657,-4.764821581,12.15371586,19.25759272,0,5.08278434,7.268927974,79.15214623,-295.305925,,,,
125.5199999,490,0,-119.5075332,76.36706144,-45.75368267,-13.04843679,33.96440517,-10.75971511,-7.967347994,-55.29503496,-40.79763936,-21.87587674,0,-43.68270234,-24.39356216,83.04347504,75.61993411,,,,
125.5279999,490,0,-44.69087683,92.43107876,-34.16488091,-0.563334613,46.1171806,-0.38481957,4.774680289,10.6895887,18.05558907,-38.26309037,0,14.413928,23.196605,86.91775317,-297.8657833,,,,
125.5359999,490,0,-137.1799996,31.86208383,-89.75887961,-61.56950641,-5.883819556,-52.96261478,-41.41429053,-36.19759573,-32.34007357,-13.9441242,0,-24.00636968,-20.42233272,90.77494793,-120.5054488,,,,
125.5439999,490,0,-23.71821198,137.4565477,20.5664532,50.31997394,96.20417444,54.47546781,70.25442288,-2.249770793,-12.41476931,-85.25021546,0,19.57697961,6.09489299,94.61502824,-59.51710035,,,,
125.5519999,490,0,-35.70623821,97.93883111,-14.9017309,5.511819259,68.62366782,23.66899389,63.2985584,28.49788109,50.53989997,48.32331615,0,36.54445223,31.07621178,98.43796196,-274.5447015,,,,
125.5599999,490,0,-92.17899102,89.04390716,-20.11298717,-2.662251532,59.26069783,10.49668972,10.32344361,-42.50662294,-25.83637857,-4.308337615,0,-44.73024294,-25.77692806,102.2437179,93.43584774,,,,
125.5679999,490,0,-25.00589237,110.2749583,-5.821485897,-1.795872737,85.11472555,24.42685815,0.407153043,35.50213488,43.17624367,-15.75816907,0,42.38699733,59.06414203,106.0322672,-266.3161899,,,,
125.5759999,490,0,-132.561866,35.90602635,-82.70294085,-90.50729207,10.73387974,-52.83841605,-36.50954248,-20.60257181,1.24798621,7.690603217,0,0.457624215,14.85398948,109.80358,-86.73561684,,,,
125.5839999,490,0,-52.86701069,105.6929307,-12.41516707,2.367896034,67.57921437,15.53292132,15.2906667,-29.48596671,-27.82123063,-98.21580453,0,-19.76517405,-14.10241283,113.5576271,-78.41702807,,,,
125.5919999,490,0,-49.53965049,86.00457565,-26.4711085,-5.245411802,63.01785111,17.19768385,20.00579823,11.11491757,24.08996595,33.16459706,0,10.0807095,31.077722,117.2943801,-291.3142382,,,,
125.5999999,490,0,-87.09075745,87.2721895,-18.41086914,-4.804690042,60.59505469,14.67686277,46.23848307,-38.48371679,-33.97256251,5.954275472,0,-32.60532106,-5.126255347,121.0138116,105.9124124,,,,
125.6079999,490,0,-31.1372688,86.44462952,-19.55544081,-3.60654989,60.76942167,7.68315572,33.98515657,21.01892015,29.43383735,-16.40949854,0,29.32517789,32.35277462,124.715894,-268.8152291,,,,
125.6159999,490,0,-126.8913295,25.5612587,-70.48341935,-63.40655022,16.05314957,-44.3079228,-37.83470869,-25.033356,-4.077320583,0.171462766,0,-15.04693342,-1.67050305,128.400599,-84.1367597,,,,
125.6239999,490,0,-61.76241335,81.45177644,-11.4027391,-6.974693213,60.24530272,6.846740449,18.11319104,-14.7059361,-29.89793323,-93.7383415,0,-8.634128755,6.479309572,132.0679017,-53.22512154,,,,
125.6319999,490,0,-80.05052089,40.07330949,-51.51380416,-35.73942979,18.52428619,-16.87098516,18.05546399,-3.235740456,2.442252729,10.85592202,0,5.706728416,4.135076019,135.7177777,-283.5796006,,,,
125.6399999,490,0,-85.62266103,72.92673249,-7.720870514,4.611437661,59.63988114,15.76320296,20.94651428,-45.63533761,-49.10248067,-15.00456995,0,-32.41711015,-28.82616606,139.3502004,102.4210494,,,,
125.6479999,490,0,-5.163217432,95.21241863,9.693689235,9.575553978,81.45075839,24.5991951,35.0257221,47.32043332,14.8690501,0.353125281,0,58.88681855,58.47496111,142.9651449,-246.2657028,,,,
125.6559999,490,0,-87.32678978,48.29902094,-40.26341339,-29.88561333,22.34398506,-8.113573891,23.70396162,7.481458723,-5.021881952,29.09107565,0,29.08099371,7.282476656,146.5625873,-61.95398428,,,,
125.6639999,490,0,-6.632813198,114.7750943,38.64869551,58.74315129,93.35120861,52.54755513,63.06445748,36.08105417,15.92154489,-41.43165034,0,36.163092,17.36487324,150.1425037,-34.04801154,,,,
125.6719999,490,0,-67.6226924,27.3734067,-35.96959515,-41.956765,33.04512364,-43.10442166,-31.55010397,23.48681094,26.02471268,56.48214424,0,10.35206592,26.54776167,153.7048714,-249.4484189,,,,
125.6799999,490,0,-132.5477438,2.698369349,-60.72532317,-82.2293328,-5.916734671,-74.16553328,-50.08012711,-86.9517386,-85.15294469,-36.24210024,0,-77.16054603,-58.83174969,157.2496682,85.74102053,,,,
125.6879999,490,0,-53.07418767,32.90114669,-36.42945829,-33.06496958,18.27773357,-37.54193227,8.076217109,-5.253969101,-27.52925465,-52.25906658,0,-3.074414024,-7.546941054,160.7768719,-306.6106978,,,,
125.6959999,491,0,-137.4423748,-3.933601828,-73.8957564,-64.11060976,-10.27344659,-44.0059185,-26.08936241,-25.17671531,-42.41043759,-10.39758916,0,-20.97360779,-23.06642638,164.2864616,-93.32535076,,,,
125.7039999,491,0,-70.26078203,52.29455191,-23.07017928,-18.84077682,32.46840742,10.45932341,9.179789035,-16.08740056,-57.30608344,-95.61829948,0,-3.537024153,-14.33175817,167.7784157,-73.23920545,,,,
125.7119999,491,0,-84.02946876,20.91560613,-55.64828288,-28.07633035,5.256261432,-20.17547381,8.598083998,-6.031178554,-40.11240263,10.72370555,0,-10.29526004,-22.70100396,171.2527136,-294.3991977,,,,
125.7199999,491,0,-105.9540721,49.90629775,-28.63563575,12.3263622,26.09238605,8.91305009,23.47746669,-39.2022628,-73.00360348,-14.67211856,0,-43.96234892,-54.78740503,174.7093362,89.85837502,,,,
125.7279999,491,0,-41.183774,49.56224634,-28.51493917,-2.919824166,28.23858003,-10.43275999,9.064468778,33.32187928,3.120364562,-17.54831498,0,35.19256721,12.19258153,178.1482631,-281.2127306,,,,
125.7359999,491,0,-102.3711135,16.68524389,-54.0669295,-38.4939422,-0.328311945,-47.39893027,-28.69122081,-6.91553671,-21.78602611,5.212018824,0,-14.97020735,-16.01094091,181.5694762,-70.07692775,,,,
125.7439999,491,0,16.27709625,131.5705446,54.52121594,67.70198477,96.82488123,57.48318437,60.38148724,55.71527264,2.679916511,-44.69349678,0,39.13822157,31.40643358,184.9729578,-30.66618432,,,,
125.7519999,491,0,-3.623101844,96.06761928,27.42187373,19.38022337,80.86203128,26.05027925,40.32446591,71.03437497,42.41765082,80.9479011,0,69.01424188,41.70878972,188.3586882,-233.0995489,,,,
125.7599999,491,0,-51.08081935,89.26099152,38.85261186,27.10980344,83.96352088,27.73847481,36.53004385,3.990832683,-5.524316661,40.95613786,0,8.141972465,1.380721229,191.7266507,152.8750116,,,,
125.7679999,491,0,-2.987781016,74.78743029,26.34574219,34.35435201,72.284201,20.55976245,53.00473209,76.30222041,41.93700096,31.51268929,0,71.94408063,73.65358577,195.0768304,-210.3419739,,,,
125.7759999,491,0,-107.9949275,-0.110116877,-44.9485056,-36.30305555,5.044236099,-37.59417062,6.262141047,5.643600415,-12.55332342,20.62842134,0,6.017086166,11.42254841,198.40921,-24.50397106,,,,
125.7839999,491,0,-33.28051502,65.45641639,24.79319856,36.05941147,62.83325373,22.77396293,52.03056581,13.44756571,-11.26126235,-76.49197964,0,11.96731532,15.6145672,201.7237726,-29.07141665,,,,
125.7919999,491,0,-68.33754403,11.87134358,-18.68011059,6.545411046,25.30315814,-19.31143264,22.11372886,17.59789254,-5.987527083,28.06728883,0,11.17814407,26.32547704,205.0205041,-233.2936702,,,,
125.7999999,491,0,-102.0711685,17.65192037,-8.067202878,11.87200616,30.24377366,-9.190836626,21.84231127,-56.6611013,-73.31111715,-30.7174626,0,-56.26235475,-37.48248901,208.2993898,126.9127101,,,,
125.8079999,491,0,-14.64413557,49.87366477,14.9382625,14.53711295,57.71133163,7.028036122,34.03746862,30.02056524,8.466081566,-25.5606305,0,32.33318641,37.69525504,211.560415,-246.0196203,,,,
125.8159999,491,0,-107.7855413,-9.090097592,-44.69162882,-42.37600402,-3.301035995,-50.10279157,-7.899700641,8.23373929,-11.38404969,9.986747704,0,7.262451068,26.27734235,214.8035662,-28.30535162,,,,
125.8239999,491,0,-33.13650167,45.42393984,13.44353405,21.58297492,39.26150824,-4.825414346,36.24820475,19.06120255,1.661690962,-78.3170538,0,23.98038552,16.93938185,218.0288299,-44.85396016,,,,
125.8319999,491,0,-35.23609651,18.83946674,0.249575413,7.710360182,35.01665788,-18.12453687,16.86636324,17.90200121,0.254771838,24.75951826,0,19.65088795,7.935909401,221.2361933,-248.0677579,,,,
125.8399999,491,0,-50.74063398,45.28452156,37.63305484,67.57574071,60.63384227,33.2921627,52.43470949,-11.87210095,-66.22188987,5.085395617,0,-26.46188137,-9.595903162,224.4256455,145.502469,,,,
125.8479999,491,0,6.292328245,49.82071517,37.87088031,69.65617477,61.54289103,36.64200779,48.42745305,80.73448455,40.49651431,31.34120539,0,70.16175658,67.78838246,227.5971747,-213.3560894,,,,
125.8559999,491,0,-95.25523459,-15.79399768,-23.62379304,-20.33385082,9.303972544,-34.04105461,-22.69329531,4.876379706,-10.19503685,25.64244213,0,4.774325228,10.58219944,230.7507675,-8.575515769,,,,
125.8639999,491,0,-0.226772771,62.28818807,54.42837651,59.50408329,72.91174602,43.06756706,62.4718599,23.57721342,-12.98685817,-62.85665355,0,19.40158616,25.54159784,233.8864144,-20.61346261,,,,
125.8719999,491,0,-43.19791183,3.347052281,-2.960882278,13.34022855,18.99917199,-2.440471079,35.0704559,38.43088701,22.60946084,60.93374254,0,36.04934992,30.28141524,237.0041058,-208.3644057,,,,
125.8799999,491,0,-96.36356081,-7.073651978,-3.999591939,-9.773568464,11.24496381,-16.26250789,14.82992998,-49.68716174,-78.02790735,-14.30522618,0,-46.23747952,-39.35778585,240.1038313,133.963205,,,,
125.8879999,491,0,-29.00742418,-1.775747742,1.302254294,7.245666948,15.99059425,-7.355034549,24.26160592,34.17439325,-10.73868063,-9.863768731,0,26.84039264,30.06545187,243.1855814,-253.4317894,,,,
125.8959999,491,0,-149.4211575,-84.08059781,-78.78823352,-53.46817345,-55.04136502,-86.28611437,-60.59050482,-26.12886095,-57.3344569,-3.357088008,0,-35.95455487,-25.85154248,246.2493491,-40.96728612,,,,
125.9039999,491,0,-56.35868683,3.265894346,5.89691464,9.726454089,22.25693168,-22.04720699,0.021519089,-30.26704803,-76.62967962,-122.1297618,0,-31.07885032,-33.58191406,249.2951251,-82.25751932,,,,
125.9119999,491,0,-42.50826241,-0.97698889,0.46312337,14.57599148,14.37945063,-10.84874721,25.16112633,27.05359577,-11.87870308,27.57211576,0,21.55896513,-2.138651482,252.3229002,-246.810355,,,,
125.9199999,491,0,-86.09486423,-3.541858694,5.741902569,12.71250793,10.0934508,-13.31431835,-1.877013843,-23.01933608,-63.80381925,1.69929905,0,-25.501031,-37.49265382,255.3326681,138.7750207,,,,
125.9279999,491,0,-27.5510623,-0.96773835,14.14933499,4.893762435,17.34404486,-27.25140781,-0.496247016,24.70828184,-16.09053934,-11.98220161,0,21.00712773,17.61948741,258.3244234,-253.0673147,,,,
125.9359999,491,0,-74.32179238,-18.42950866,-0.195694011,17.74471245,0.213300834,-22.84317245,24.13605296,9.124213227,-28.59960077,26.58785703,0,-0.184567799,-11.55029555,261.2981578,-14.85847851,,,,
125.9439999,491,0,26.21385105,65.56421556,81.00913382,103.0935637,74.41822434,76.73812725,87.73288489,69.316669,17.52766339,-27.19317285,0,67.01413439,40.94593907,264.2538656,-9.084501933,,,,
125.9519999,492,0,-34.97724662,-3.805317128,22.38824288,37.11592924,21.61611916,7.791041929,12.99533768,51.34102717,21.99273919,66.78196771,0,46.91655744,36.19941495,267.1915437,-193.3797843,,,,
125.9599999,492,0,-76.09926665,4.635228937,38.87199935,39.9546577,34.26723673,3.039066082,10.62427369,-38.04041398,-71.94385586,-4.607614574,0,-37.23417425,-33.67056296,270.1111853,157.2529277,,,,
125.9679999,492,0,-10.211963,17.45428615,40.15483678,29.10634918,44.18857164,13.88196314,34.95421108,58.04091245,17.63841643,16.96470453,0,59.35745757,59.10480435,273.0127849,-214.5551209,,,,
125.9759999,492,0,-94.81888806,-30.45352787,-8.203104567,-3.741015063,-6.327731201,-29.20552554,4.389083093,15.55834839,-17.55850499,30.18042501,0,6.135879173,15.34533759,275.8963399,14.40141158,,,,
125.9839999,492,0,-0.558018084,49.24960428,76.06714258,91.06728108,66.86187972,49.89354878,70.09644344,33.09489237,-22.96509876,-58.76531553,0,30.27631193,23.29246715,278.7618484,-14.79196151,,,,
125.9919999,492,0,-39.01664708,-6.4279493,25.47890081,41.401628,20.30290702,11.52224636,27.21278847,43.77320037,-3.343503322,55.55875295,0,41.55166533,27.16469236,281.6093051,-184.7760196,,,,
125.9999999,492,0,-79.48731911,-14.72336468,22.13857664,25.97881056,2.758961719,-4.813647376,17.62871695,-21.14154407,-70.53960914,-8.453524096,0,-29.24809805,-43.30598463,284.4387077,163.2182963,,,,
126.0079999,492,0,-19.54772846,-6.886354935,29.61045987,24.168885,14.10263652,-6.083684302,25.83354953,49.39730093,3.252439415,-3.106376544,0,43.90046008,17.52387582,287.2500548,-233.7869622,,,,
126.0159999,492,0,-106.5273155,-55.57104754,-11.03943157,-10.15484471,-16.53834586,-45.929006,-42.28133489,0.565483628,-29.40152469,20.51845682,0,-8.531251675,-11.19331792,290.0433445,5.844731182,,,,
126.0239999,492,0,-41.32861739,-16.62484691,30.20289112,24.04731892,21.47185836,-22.89254753,-13.08433063,7.531028796,-41.55637994,-72.92563549,0,-11.66434121,-5.043749771,292.8185765,-35.48625332,,,,
126.0319999,492,0,-53.40529207,-34.71732555,9.29559303,-1.833770592,1.937888141,-35.05475822,7.478099114,9.638171672,-25.93143559,28.06154347,0,-4.28552969,-3.804298402,295.5757492,-223.3139975,,,,
126.0399999,492,0,-47.47382912,16.41003702,62.87382255,58.05570018,44.59891886,33.94918922,45.70521905,-8.704410854,-45.65951115,11.77934632,0,-14.1634044,-18.91065275,298.3148616,163.8404173,,,,
126.0479999,492,0,-31.77578274,-22.29359797,24.23070147,22.839973,9.909001036,-4.033431524,13.44847373,50.34545583,10.64059098,21.03806654,0,36.74808744,33.99739649,301.0359155,-209.9943729,,,,
126.0559999,492,0,-134.3709256,-81.85278455,-35.22056374,-32.87053586,-53.24549036,-62.30896121,-37.51093479,-36.17348628,-65.72484665,-7.978567184,0,-50.61509282,-36.50649453,303.7389109,-3.469833231,,,,
126.0639999,492,0,-41.25620009,-2.290542214,41.39317209,38.72800711,14.23841004,10.16823534,20.67254756,0.207915242,-44.33030943,-88.78141123,0,-10.45375302,-21.13523799,306.4238491,-47.98664964,,,,
126.0719999,492,0,-84.30584837,-47.69772218,1.258543668,-2.582935522,-18.99237215,-31.81544267,-2.382188482,6.579481258,-30.01411088,31.2916637,0,4.018033516,-16.86092914,309.0907307,-209.9863639,,,,
126.0799999,492,0,-78.0795578,-6.151471553,52.62927049,48.66928904,20.02400464,3.641522329,14.13589435,-41.92392153,-100.1297916,-14.49056677,0,-39.54066233,-40.09413759,311.7395582,152.2075745,,,,
126.0879999,492,0,-25.07155876,-13.87061719,43.5851307,35.77477754,14.21664681,-6.377261568,5.323524998,47.35481963,-8.967847355,14.87285835,0,35.4333227,35.10933367,314.3703356,-218.9749115,,,,
126.0959999,492,0,-138.6846205,-84.07453514,-27.22350456,-30.57940095,-54.22978967,-58.14380767,-36.01934806,-13.31032881,-58.81674211,17.7751482,0,-23.29558557,-31.75737557,316.9830644,10.56442387,,,,
126.1039999,492,0,-32.84674778,-0.30879259,55.25463424,40.47126342,17.3512731,13.82768024,32.28771567,4.444747738,-71.01225234,-78.93016861,0,-4.009606689,-18.55294271,319.5777484,-51.86298643,,,,
126.1119999,492,0,-47.49856631,-30.36967861,28.52771755,16.5583336,-6.612140141,-19.37663127,30.73891156,36.90769078,-17.17105598,54.67152145,0,17.34247598,6.018787972,322.1543912,-196.9667899,,,,
126.1199999,492,0,-83.3497563,-23.21994048,42.13718856,40.46199066,2.648091698,-8.421514103,16.33447736,-15.10561159,-78.52970564,7.012042959,0,-32.28343307,-48.27261479,324.7129963,165.7482719,,,,
126.1279999,492,0,-49.65207073,-36.91720294,23.10911416,6.686879881,-7.493162148,-24.52063043,-22.71924002,23.10712576,-50.28092566,0.953659974,0,11.88181679,5.983935155,327.2535699,-230.2735676,,,,
126.1359999,492,0,-115.0737697,-68.88916152,-12.87412332,-28.43309138,-46.7800192,-53.78685126,-27.55289681,-15.54107141,-65.98462253,23.51469702,0,-15.70503391,-18.34355357,329.7761169,20.76430329,,,,
126.1439999,492,0,-15.67536822,2.020548546,58.25851685,54.24960845,16.29170421,7.28615586,32.01789212,14.27106537,-55.83763992,-64.33050483,0,8.266802848,-17.38165855,332.2806407,-38.28704169,,,,
126.1519999,492,0,-54.17141578,-42.5604947,15.47054041,20.40124284,-16.57968106,-19.24144003,8.412427921,15.98352133,-47.60935696,39.39844013,0,1.523036606,-15.419229,334.7671496,-201.3975815,,,,
126.1599999,492,0,-52.62419895,1.235507635,58.93440587,59.80110261,20.49824648,28.16935145,45.61586367,-10.08494227,-71.10303354,7.639849773,0,-11.86684899,-27.11847143,337.2356506,174.0810748,,,,
126.1679999,492,0,-4.223299053,-0.614360687,53.18355636,62.58415501,22.49067418,28.13842073,36.59921808,53.77740358,-3.94395654,22.80231217,0,46.20455984,28.01761255,339.6861477,-199.2082902,,,,
126.1759999,492,0,-89.71308239,-45.99832116,12.7532597,39.67640187,-13.21152088,2.894040711,14.84052224,16.68957948,-40.59331937,42.69940822,0,2.570659032,-7.479169306,342.1186506,56.028861,,,,
126.1839999,492,0,14.70694858,27.86924311,92.41672799,86.80667594,70.20704088,53.93044496,64.09244359,54.64448292,-30.88703136,-32.33266852,0,45.83060171,41.66747441,344.5331675,4.938948277,,,,
126.1919999,492,0,-29.91220691,-30.9079808,34.35207739,20.35562994,17.96578216,-4.167346019,28.36446758,41.09292135,-16.93945589,76.54515504,0,37.76959283,49.91626143,346.9297034,-139.7939006,,,,
126.1999999,492,0,-62.55791438,-20.66135026,39.23723261,47.33617979,8.961979243,8.332462239,37.45427495,-6.857225119,-72.29191889,24.21731432,0,-6.717885323,-19.176449,349.3082689,206.3728973,,,,
126.2079999,493,0,-37.1214776,-48.6196086,8.013039627,9.890675604,-9.848113237,-34.49970793,-8.72898,36.71673277,-44.96664411,15.00650799,0,24.35215182,5.310975904,351.6688736,-206.0762888,,,,
126.2159999,493,0,-142.187135,-121.0236791,-57.97050038,-53.59270918,-79.73511586,-94.3315508,-57.10860038,-40.47972862,-101.1967882,3.213141529,0,-57.03542013,-56.94062727,354.0115263,26.74912131,,,,
126.2239999,493,0,-29.77276959,-37.16135648,26.65847433,30.89641084,1.357588656,-7.405653967,11.12498414,-4.536463828,-87.71966286,-85.37140109,0,-18.38018131,-29.54551775,356.3362373,-46.01659736,,,,
126.2319999,493,0,-33.31508488,-51.67275123,14.30053839,27.5764,7.999894722,-8.103563435,11.9024395,22.85499801,-51.74560241,45.28319764,0,6.59778021,10.25390893,358.6430146,-168.2351306,,,,
126.2399999,493,0,-44.14641479,-20.67860777,43.7918171,68.65991205,23.55536596,17.97515957,48.37707196,-10.13245883,-74.58985434,16.71644088,0,-17.96752981,-29.26172534,360.9318703,208.7491829,,,,
126.2479999,493,0,1.240240229,-21.43138349,34.62492932,49.13465639,15.06620062,11.55097467,44.29215146,58.3422275,-17.51637226,35.98802949,0,50.63458383,21.8103039,363.2028172,-183.6703088,,,,
126.2559999,493,0,-92.04838137,-76.40054627,-15.57248991,3.396520969,-33.59759111,-24.73395542,-7.721727143,15.84323926,-65.66862873,50.17093464,0,-2.057913277,3.449220754,365.4558645,70.3932812,,,,
126.2639999,493,0,-19.38158461,-35.85732778,30.78596033,50.16256456,11.87360194,6.716745114,9.637812222,19.9622818,-54.48246066,-55.84686628,0,3.503908106,11.01345429,367.6910239,-11.58756709,,,,
126.2719999,493,0,-63.19758446,-82.56642198,-15.69925545,6.057780573,-25.5203878,-25.23875157,-3.435660669,-0.795370551,-54.99025876,27.04647874,0,-16.08992299,-14.68544072,369.9083088,-170.2689501,,,,
126.2799999,493,0,-88.09897526,-63.60331291,0.873230812,29.24442556,-17.85253405,-1.981639296,8.546727192,-35.56590126,-123.4823564,-17.14780064,0,-52.77365578,-74.97471211,372.1077328,173.585406,,,,
126.2879999,493,0,-41.61357094,-76.48099266,-14.93384683,11.85612448,-17.94470178,-24.49482198,-24.49374901,14.32730694,-65.82826937,-6.496691058,0,-1.479625291,-30.87594842,374.2893065,-226.6762517,,,,
126.2959999,493,0,-98.85925382,-89.343306,-36.51475989,-2.733875401,-35.11445616,-30.56593333,-22.92279152,-24.84479501,-86.64489255,5.08385863,0,-39.20669776,-33.16675219,376.4530446,36.83659219,,,,
126.3039999,493,0,1.515983083,-6.047068325,29.07879606,63.92893607,27.28273029,32.66015781,45.88596074,39.83193094,-49.35365549,-53.99714674,0,32.54316432,16.62498477,378.5989614,-22.92609539,,,,
126.3119999,493,0,-63.57429484,-72.72089676,-45.43998454,-2.32238198,-29.44387706,-36.09126747,-13.52803749,18.39431576,-52.7766258,44.2340714,0,15.10388814,-4.378204028,380.7270707,-162.2132286,,,,
126.3199999,493,0,-100.1079706,-55.43060618,-41.73536292,6.643395866,-22.53121848,-35.16284473,-28.51197959,-59.98264183,-134.4526005,-36.92049195,0,-65.92721921,-66.57521474,382.8373873,163.1007943,,,,
126.3279999,493,0,-23.82720956,-20.81398721,-28.05643569,11.60625468,10.20684901,-21.74753464,-0.520827887,4.466353567,-61.76987948,-23.17728837,0,0.287583455,-6.237320251,384.9299264,-234.5755621,,,,
126.3359999,493,0,-81.97563527,-31.34500428,-55.36383368,-10.8030625,-10.38957469,-29.03862376,5.100806868,-10.67844673,-73.80492765,18.49762817,0,-13.27441855,-13.39435529,387.0047034,64.57449769,,,,
126.3439999,493,0,11.74648187,46.38802131,2.357079111,54.12189269,48.79846161,30.2325228,49.13678652,34.88215067,-36.46804452,-54.60692357,0,31.70670582,5.177062144,389.0617338,-1.420665368,,,,
126.3519999,493,0,9.187347243,42.36107427,-9.172167043,51.10958059,57.12211644,23.45591406,46.82830809,35.83993217,-1.619288188,49.35134846,0,27.72454592,8.508904817,391.1010341,-136.7487247,,,,
126.3599999,493,0,-1.345672779,80.41353209,13.78475199,80.61995863,74.7052187,49.47152675,53.3698633,17.53070617,-38.94552156,27.7405782,0,1.670778635,13.39736136,393.1226205,232.0226089,,,,
126.3679999,493,0,20.75031152,65.38049565,-23.57740769,45.79180015,41.82136342,50.50908177,28.34733972,70.74515531,31.74840051,42.85964107,0,63.98891737,52.58056005,395.1265108,-160.0702453,,,,
126.3759999,493,0,-58.44592809,35.89612963,-55.16517138,34.5723992,16.44612636,54.80145208,4.468093765,15.140005,-8.85942744,39.13522475,0,23.1235697,1.916600741,397.1127218,96.6027964,,,,
126.3839999,493,0,17.90775817,90.00988971,-2.5915824,79.77592739,69.38274087,69.70132946,33.32666043,46.52760567,-12.53988361,-45.15222339,0,51.01300733,35.63624986,399.0812722,10.67909013,,,,
126.3919999,493,0,-29.30594541,39.44534845,-55.11957761,14.65424453,22.78064783,18.11962192,11.81024063,22.42452014,-17.23255201,41.15326,0,20.17451969,11.1487665,401.03218,-129.3682101,,,,
126.3999999,493,0,-36.76319314,65.46024232,-31.2087957,56.02713859,35.63947892,50.77631234,25.62123186,-14.05001623,-66.87320234,-6.754603351,0,-17.67688508,-35.31858716,402.9654617,207.6889831,,,,
126.4079999,493,0,-5.285679533,39.25034269,-58.31014298,23.88757495,13.26843947,5.296694577,-1.807516322,37.6391094,-14.25581815,6.649534784,0,32.01520921,-0.937016936,404.8811373,-189.1193034,,,,
126.4159999,493,0,-95.64732193,-5.316569189,-100.1870701,-14.3622477,-26.35286654,-22.60700034,-30.51240403,-20.61787969,-62.3914985,1.349307491,0,-28.87438007,-49.37383891,406.7792273,68.70816756,,,,
126.4239999,493,0,-6.831543053,56.75753744,-40.28182809,38.51425427,30.49926477,25.20579049,10.52551803,18.61910657,-42.8757412,-82.19290531,0,7.55935177,-5.812098366,408.65975,-32.49955096,,,,
126.4319999,493,0,-45.77560624,10.21501953,-81.84662393,-22.14719491,-6.956791152,-22.95883738,-21.26651886,-0.090654174,-36.34962673,16.02253333,0,-7.855552175,-11.34548156,410.5227251,-158.0852014,,,,
126.4399999,493,0,-41.37799906,52.67809171,-36.65769353,29.95033305,27.59868356,22.76142842,5.399124134,-27.11654406,-80.83545405,-19.18852046,0,-35.87283704,-51.81657521,412.3681753,185.4518233,,,,
126.4479999,493,0,30.48765913,71.86183797,-18.11113043,45.84890445,51.30910332,30.83589007,28.48449128,53.82560729,-4.980532971,18.03751633,0,45.69330904,17.131603,414.1961195,-192.617719,,,,
126.4559999,493,0,-37.24004192,52.11171908,-34.38795105,29.46801233,35.30999079,22.58386564,29.50623712,22.43908309,-16.84681797,49.47570916,0,22.40872942,21.02635797,416.0065773,109.5238632,,,,
126.4639999,494,0,40.27364831,107.2704564,19.94515358,74.27422435,85.08332862,65.96656662,63.08035044,73.91889042,16.67449795,-16.47484239,0,66.00920265,57.81994746,417.7995722,25.77179796,,,,
126.4719999,494,0,-19.0710376,45.75323566,-38.68189123,14.41323783,28.87253639,5.100294678,15.50078805,37.97743498,-2.162200038,62.65707856,0,22.03225707,11.75213154,419.5751268,-106.1441219,,,,
126.4799999,494,0,-16.14163498,87.20981181,4.823044713,76.1451501,61.840449,54.067853,60.28652226,0.124745629,-46.40953989,17.82659038,0,-11.63474875,-18.47810063,421.3332613,225.879601,,,,
126.4879999,494,0,35.76530364,87.8199054,8.273508983,77.88439503,72.48552455,54.07162576,61.53564687,86.54807245,39.29947143,58.21730163,0,76.82224175,56.95612102,423.0739983,-143.083511,,,,
126.4959999,494,0,-70.50876155,25.78294431,-46.26572788,9.209690121,14.98746656,-7.785459382,-9.350232036,13.79148255,-27.83390458,50.38966731,0,0.962128029,4.354136198,424.7973628,139.442118,,,,
126.5039999,494,0,7.379914355,71.56160168,-0.68189467,44.38242268,50.37565388,27.12039198,27.30308021,34.57986483,-25.56402667,-47.03426708,0,23.74242768,31.94965945,426.5033766,20.6078095,,,,
126.5119999,494,0,-47.70459768,9.933971604,-57.08877614,-2.528201276,-5.080801089,-22.19374638,-2.283922318,13.12280965,-30.70100737,31.03074532,0,1.820269294,6.35187896,428.1920625,-106.9352392,,,,
126.5199999,494,0,-43.88120384,54.81251737,-6.699539989,47.16745437,33.07500815,17.53127668,16.69745521,-25.61981155,-93.81866452,-26.78411893,0,-46.09816048,-45.41402535,429.863445,213.5600613,,,,
126.5279999,494,0,15.1768653,66.05970475,4.276465275,56.55645743,42.07758408,25.74035773,36.54544136,54.58124423,-13.19673999,21.50853681,0,47.85222771,26.85789461,431.517549,-158.5135079,,,,
126.5359999,494,0,-80.69847008,8.580256799,-43.93543346,18.05432959,-13.39099173,-14.73147593,4.112759186,0.032868416,-53.56196557,42.24516926,0,-2.848300978,-15.3866407,433.1543986,135.3533537,,,,
126.5439999,494,0,12.51685614,65.62256281,17.15873588,77.45495429,45.74615812,40.02394888,44.23983237,47.66181817,-40.46025961,-38.66854635,0,30.95216447,22.76460375,434.7740184,19.84144102,,,,
126.5519999,494,0,-40.25674377,10.37398938,-33.14537218,39.25032451,-4.345127357,2.624157638,21.89312338,24.45694374,-40.4751156,45.29638582,0,16.26947121,5.655111093,436.3764347,-96.76371389,,,,
126.5599999,494,0,-48.28259163,39.14851166,7.825718961,79.90032672,23.55961178,37.79272036,34.11073592,-27.7600607,-94.07092017,-9.913331737,0,-35.92346426,-47.79565007,437.961672,217.5994606,,,,
126.5679999,494,0,-16.18375238,15.67639638,-11.50478913,69.4402823,14.32690004,16.26916978,12.25170391,46.37512877,-27.3732197,21.49153446,0,33.43969913,26.0634305,439.5297576,-162.8633657,,,,
126.5759999,494,0,-116.689916,-47.04672781,-69.35185546,37.50649901,-51.41230709,-37.69576312,-27.89784161,-28.50450041,-88.54310496,8.847734779,0,-39.93369697,-31.16061099,441.0807167,111.0342371,,,,
126.5839999,494,0,1.078257262,36.28534463,17.01082079,121.3273242,25.97458005,38.86456699,31.81800471,21.74201909,-56.97222376,-72.4559315,0,8.849316151,4.789301427,442.6145744,-17.83655036,,,,
126.5919999,494,0,-49.79257393,-16.76374816,-34.79490383,80.99062484,-17.31877323,4.380457066,8.566577541,24.01554763,-30.25112895,30.26937578,0,14.36335949,9.352622772,444.1313609,-104.5294978,,,,
126.5999999,494,0,-65.3895983,4.024615813,-12.96174405,107.2310058,-3.85366488,17.94425681,17.94959234,-43.15506978,-106.0009202,-36.39406696,0,-48.59714155,-57.84168388,445.631103,209.4643468,,,,
126.6079999,494,0,-28.38881526,-13.95310534,-34.45296124,81.78206963,-20.70595348,-7.622760372,-4.622173566,22.57245464,-57.97666503,-8.19247022,0,19.03148544,1.836683656,447.113826,-182.297825,,,,
126.6159999,494,0,-140.2484697,-85.93388453,-106.1601465,17.7267312,-93.52555664,-66.31285957,-56.10965571,-48.44275981,-111.8088975,-13.62238955,0,-53.52082478,-63.21868536,448.5795593,98.09282209,,,,
126.6239999,494,0,-11.21530442,9.87694827,-11.13080232,98.63355412,2.6014967,16.57233905,24.65467096,-15.3239255,-84.74137728,-109.6101509,0,-24.12741646,-46.19326167,450.0283321,-44.69751296,,,,
126.6319999,494,0,-13.91452286,1.565511731,-18.19930284,86.44494502,1.085630839,11.65121004,40.29910951,24.57133061,-23.96567437,24.12089667,0,6.307166928,-0.495447854,451.4601705,-114.4716924,,,,
126.6399999,494,0,-17.94883981,34.24681869,15.54597701,118.8668283,23.95609298,24.59853164,35.14166705,-7.718102249,-56.44917486,0.336182357,0,-28.46987669,-33.11442747,452.8751045,225.6123951,,,,
126.6479999,494,0,23.41863168,26.44854679,2.881937884,105.1834214,22.2532062,8.724281597,7.665962714,53.98225634,-2.39712118,33.59536801,0,37.57496455,23.94107341,454.2731646,-155.3361947,,,,
126.6559999,494,0,-83.50893207,-41.58971364,-68.51346552,43.57110283,-50.06042473,-30.66524782,-40.71200359,-0.467468583,-46.34119563,40.48836574,0,-15.50632224,-24.9327206,455.6543794,130.1735868,,,,
126.6639999,494,0,-9.093271136,1.106557947,-31.35316412,93.06833613,-20.10616358,19.42948208,-21.99169492,3.670812636,-46.5261414,-78.77867574,0,-6.817304143,-39.13549448,457.0187784,-39.89029482,,,,
126.6719999,494,0,-57.34651731,-45.70272148,-77.58612186,55.53053185,-57.94838737,-12.78968783,-43.791495,-11.32525521,-46.67408585,2.647321936,0,-19.29934027,-44.9600267,458.366391,-140.4262121,,,,
126.6799999,494,0,-64.52018975,-19.25179438,-46.7929806,71.7321742,-33.69638329,0.025526603,-28.57678827,-59.12376862,-103.3035727,-46.71327453,0,-66.81087523,-87.60325216,459.6972491,170.6146175,,,,
126.6879999,494,0,-14.44905872,-20.04381695,-48.21330372,73.08027958,-31.29645406,-7.891880433,-25.81494821,3.438123634,-39.1549639,-22.33148736,0,-6.312133532,-28.32556009,461.0113835,-216.6485674,,,,
126.6959999,494,0,-76.8614297,-34.6383165,-62.00505687,62.97147365,-45.14803309,-12.31939008,-22.4424006,-23.57489268,-48.9702451,6.462983565,0,-37.89996506,-54.09568938,462.3088238,99.86726104,,,,
126.7039999,494,0,35.47847072,51.33606932,20.97097424,134.4333623,39.17892511,55.47895704,37.0925568,33.3687947,-9.835211489,-58.16193972,0,18.71384809,-12.33233518,463.5896018,-22.5679655,,,,
126.7119999,494,0,-12.86711994,2.033431565,-26.78862787,96.58032163,-4.624786975,18.10518747,25.30177417,45.90398252,-3.468385934,51.72754767,0,37.4890101,22.46388436,464.8537506,-85.46236493,,,,
126.7199999,495,0,-30.67562944,15.93719469,-4.06129827,110.2438394,2.66969038,36.23480385,25.8582417,-8.599363719,-58.15226231,-8.320061965,0,-18.90124808,-31.83270259,466.1013016,219.6032128,,,,
126.7279999,495,0,-2.906940043,-4.540301677,-21.87888479,95.28573626,-9.08676025,12.1764005,-10.92103265,30.45117377,-6.118360553,-1.796776544,0,11.00725735,-7.523136532,467.3322851,-183.8290704,,,,
126.7359999,495,0,-96.52375144,-54.61902467,-73.47656445,60.46181151,-59.6832189,-30.00808052,-32.98590093,-23.6282759,-59.13133777,11.25366456,0,-39.99308951,-49.11832798,468.5467352,104.9328011,,,,
126.7439999,495,0,-17.82155939,-8.056305575,-29.15378664,82.46455924,-19.94651895,6.744597541,-6.380803856,8.233929865,-31.59583847,-79.47793866,0,-3.377317231,-31.32776304,469.7446854,-55.75932232,,,,
126.7519999,495,0,-83.6927679,-72.01401702,-88.43432417,26.75419816,-75.56203635,-36.41916309,-59.06621192,-15.03667213,-43.58313135,-11.65549227,0,-29.01108243,-49.89189516,470.9261686,-143.1503546,,,,
126.7599999,495,0,-82.25731292,-38.70863889,-47.9130671,68.5198239,-44.72049745,-6.283956181,-34.54041231,-65.02441132,-127.2484334,-71.02916654,0,-81.51398299,-94.27946948,472.0912178,149.4890645,,,,
126.7679999,495,0,-16.92303054,-23.15996697,-30.04267386,70.05858496,-21.76023482,-4.25048323,-8.94038529,17.71923898,-39.77850057,-24.03623775,0,1.860018518,-12.90027126,473.2398649,-219.2298907,,,,
126.7759999,495,0,-84.38065247,-54.00391301,-57.56310345,56.3629109,-52.73777655,-16.74453133,-14.90640097,-26.22907642,-53.40598133,-0.907705056,0,-39.62924059,-46.74412984,474.3721469,104.6753558,,,,
126.7839999,495,0,1.792582593,-10.15633384,-11.30086716,98.97879623,-7.733335528,16.20381174,-2.088038964,12.42561028,-26.37375267,-83.53633062,0,0.911487688,-20.25788272,475.4880975,-45.79741458,,,,
126.7919999,495,0,-48.59545353,-61.87254523,-55.70784444,56.71645507,-46.78853585,-23.04810842,-28.31430149,8.592149539,-21.23195466,3.008599497,0,-0.099324654,-13.20633479,476.5877493,-116.0671343,,,,
126.7999999,495,0,-18.75489311,-5.565591906,2.954374622,109.1087852,-3.317398196,36.0593553,27.22627287,-37.16099963,-77.92460026,-51.56175966,0,-48.70595424,-54.34877195,477.6711386,180.4841323,,,,
126.8079999,495,0,30.30958482,-8.409944411,-2.709054268,80.08541918,-4.439275184,17.77863369,21.95627988,42.465178,-4.858739986,3.917398579,0,24.65379821,16.51626054,478.7383002,-179.4556461,,,,
126.8159999,495,0,-71.98967604,-66.94799782,-51.57775226,39.55233467,-52.54367852,-29.65152036,-10.78654975,-1.185626654,-40.70410709,26.57395172,0,-15.70439244,-26.64253108,479.7892703,129.4012868,,,,
126.8239999,495,0,17.83365515,-10.57448809,6.881135583,98.39446366,3.986858811,20.62779106,17.75848143,32.13545713,-18.58354584,-68.9403982,0,18.31268538,-4.344251554,480.8240831,-45.21856071,,,,
126.8319999,495,0,-34.01010423,-59.3811929,-43.24002551,50.86566817,-42.00528382,-21.26745247,-6.420237915,18.46106544,-13.85676189,20.64944105,0,-3.41461715,-8.296381169,481.8427742,-101.249802,,,,
126.8399999,495,0,-25.18396507,-24.29780615,-1.367867729,98.6821731,-10.81474989,14.78872496,25.51739891,-32.04560516,-65.42319526,-34.33306817,0,-49.90130015,-59.79993559,482.8453824,186.520662,,,,
126.8479999,495,0,5.313632628,-43.88257627,-18.04432311,73.59660159,-17.83465249,-2.950033983,-28.81904483,31.51253068,-14.73289708,-1.075123992,0,21.72081166,8.610100538,483.8319429,-183.6571271,,,,
126.8559999,495,0,-92.98536085,-101.3095901,-73.67363696,24.18960246,-78.45507896,-34.37911748,-59.76185926,-25.68020541,-86.34083174,4.196765316,0,-39.2369244,-49.55615777,484.802491,125.5347645,,,,
126.8639999,495,0,17.93255968,-31.04565427,-3.102723992,106.6204082,-19.26550714,45.93029829,23.78032436,11.50111583,-56.98207012,-92.94574533,0,-0.136364707,-42.43081354,485.7570651,-56.61392839,,,,
126.8719999,495,0,-19.62953368,-63.3468416,-28.66283399,72.96868722,-37.40875669,8.299877509,-1.987617389,15.02666859,-27.36073649,8.603579733,0,8.776071818,-24.78433478,486.6957018,-96.39235005,,,,
126.8799999,495,0,-5.255862851,-17.34723975,21.46504309,97.08713085,9.455949811,40.15751093,43.75392964,-14.80860376,-72.03649515,-29.90472434,0,-32.34197636,-48.48743585,487.6184388,203.7344023,,,,
126.8879999,495,0,15.45894338,-49.30402955,-12.04633626,55.37966329,-14.35776823,12.92002661,23.99236503,42.34001133,-7.404462974,-0.259598374,0,20.33767048,13.01438109,488.5253143,-161.5632222,,,,
126.8959999,495,0,-74.21380622,-99.84971435,-57.76544903,16.90682613,-63.58687866,-39.85145026,-30.47028572,-23.70102787,-58.41800382,-1.734551644,0,-35.63811183,-38.70959347,489.4163657,139.5936617,,,,
126.9039999,495,0,46.47741265,-13.98490632,22.47003633,100.8833947,16.62198377,43.78921662,35.55186612,28.40000149,-30.95090836,-78.90960309,0,13.85460545,-0.923267406,490.2916314,-42.38075223,,,,
126.9119999,495,0,-43.26581011,-94.82528167,-61.97779039,13.67496481,-56.0094705,-23.39736224,-35.96709828,7.986872382,-40.33173628,11.44852605,0,-3.061395129,-7.897729633,491.1511514,-75.70559105,,,,
126.9199999,495,0,-64.80994265,-85.86434647,-48.67354693,17.54206118,-55.25611591,-32.37679848,-46.95260079,-70.04721284,-125.5397552,-75.11301049,0,-77.63975741,-91.1513596,491.9949633,182.5092698,,,,
126.9279999,495,0,-14.42580149,-79.25683236,-45.07972018,34.66305021,-48.03024297,-20.8937303,-23.80272886,-8.055371297,-58.12156778,-45.55426531,0,-25.76739452,-50.5933887,492.8231049,-200.4380686,,,,
126.9359999,495,0,-104.543776,-116.4359756,-81.93955561,11.88252996,-86.40135399,-44.53767963,-51.42996336,-48.79651485,-94.91086192,-19.68318972,0,-62.3460041,-89.64254171,493.6356166,118.5917709,,,,
126.9439999,495,0,6.706253632,-42.45531161,-8.760317775,81.33997063,-11.83597692,23.27063889,3.038719885,5.103937615,-65.63453323,-98.69369463,0,-10.15140775,-36.8401694,494.4325374,-58.50999612,,,,
126.9519999,495,0,-14.5056103,-63.01244738,-31.68755949,64.38166032,-31.81127286,17.60759373,8.54307394,13.19938545,-37.07703071,5.807033425,0,-2.136665998,-11.08643214,495.2139085,-72.97540027,,,,
126.9599999,495,0,2.594179105,-13.69721172,20.77534198,103.6731153,4.134417147,55.2363988,45.03570768,-14.81474753,-75.89383833,-29.14857035,0,-17.62147312,-46.07208372,495.9797689,217.674919,,,,
126.9679999,495,0,4.34218694,-58.93335896,-20.26298563,45.45895763,-23.765442,0.762569568,-1.901463936,41.04893274,-20.08348577,12.60292584,0,24.90419865,1.453236672,496.7301579,-141.6781333,,,,
126.9759999,496,0,-89.40688167,-115.0678319,-73.82666105,1.016891027,-82.23659752,-45.41663854,-62.40097258,-29.39876004,-77.86058735,2.546779619,0,-55.19114545,-59.29893629,497.465118,153.5818578,,,,
126.9839999,496,0,28.34328163,-34.52619068,4.818192257,81.76010483,-8.057731192,26.97084638,4.00068752,9.624564601,-50.0388254,-94.12536473,0,-7.221710414,-35.4574034,498.1846892,-54.73552113,,,,
126.9919999,496,0,-40.50291322,-95.97109569,-56.03782158,23.69862198,-50.69875708,-31.19323015,-30.36606,3.474193663,-33.24959398,9.227835445,0,-14.81214893,-23.86762939,498.8889112,-72.31646837,,,,
126.9999999,496,0,-22.6741241,-61.88772788,-19.68859499,58.78837929,-22.68926201,-3.474312904,-9.925916791,-38.60867,-92.06908295,-49.21672691,0,-59.43836752,-53.96832042,499.577826,188.1791051,,,,
127.0079999,496,0,25.41354855,-72.07615958,-29.71260772,55.93132829,-26.99203154,-7.338299241,3.092009484,15.29105857,-24.15088228,-16.87657485,0,-8.122173449,-11.18311177,500.251475,-178.5838894,,,,
127.0159999,496,0,-62.19255122,-109.771975,-72.12274281,29.46653572,-67.25610779,-31.86025848,-28.97435448,-25.10253426,-47.90491741,6.939701716,0,-46.49656073,-47.32576924,500.9098996,152.4111128,,,,
127.0239999,496,0,31.31953029,-42.51107346,-14.23242169,68.3162568,-4.50040293,19.50450184,4.285755973,24.26329395,-38.11361665,-86.068484,0,9.653388347,-6.157815772,501.553142,-40.30034912,,,,
127.0319999,496,0,-32.52100064,-101.3709507,-70.82047648,11.74248755,-52.25722495,-28.52992249,-25.78547441,-8.052725203,-48.84122258,-12.20292911,0,-18.81504128,-28.24116524,502.1812448,-65.05283474,,,,
127.0399999,496,0,1.650222467,-45.16666965,-10.762511,85.9781985,-9.414428137,34.89138284,15.52907195,-31.0504094,-81.69678457,-56.54851278,0,-44.13618929,-57.72700188,502.7942495,199.0136276,,,,
127.0479999,496,0,36.56352101,-57.16772964,-23.69185689,64.16556109,-18.38111848,2.762105853,5.306318841,56.12717382,-19.82179638,1.689668253,0,33.82751305,8.804771729,503.3921977,-142.0252592,,,,
127.0559999,496,0,-59.3650176,-112.0616611,-76.33219257,16.90402988,-72.66606842,-53.25618107,-40.26055456,-10.49458852,-68.73785685,8.113392619,0,-33.64490878,-49.31474135,503.975134,170.3518206,,,,
127.0639999,496,0,58.35026807,-28.93598933,5.177560255,108.6162014,6.876353843,56.51922099,23.8677717,33.69123715,-22.79384746,-87.2361312,0,6.990482252,-10.05159468,504.5431007,-42.53450745,,,,
127.0719999,496,0,7.874725311,-63.70894681,-27.87026043,75.7833222,-18.54411701,33.22280772,22.44967534,39.49931825,-9.995188698,23.00234459,0,18.77864726,6.045672382,505.0961394,-32.07587263,,,,
127.0799999,496,0,27.12412508,-13.54262006,25.28237397,125.9549924,21.36324594,74.12892079,64.36236711,8.122515663,-49.77667683,-19.72630413,0,-3.199311529,-25.4217804,505.6342958,231.4898035,,,,
127.0879999,496,0,32.37965467,-50.12044684,-6.756135815,86.78543926,-6.856943809,42.11968514,17.16033514,62.61324844,4.923488406,15.42989519,0,41.21164892,24.05728364,506.1576134,-117.2436832,,,,
127.0959999,496,0,-106.6678981,-141.0978345,-92.52877379,-13.82156965,-90.67286548,-63.2426122,-82.72773522,-32.95000102,-91.2562095,-1.860204412,0,-49.64779199,-40.36836153,506.6661338,189.4380634,,,,
127.1039999,496,0,2.887519919,-70.79951169,-26.01622521,56.94578036,-24.72311059,7.300876762,-18.53764875,-8.216070712,-74.67551145,-122.4760217,0,-24.14020156,-33.91319339,507.1599016,-58.00180261,,,,
127.1119999,496,0,-50.62097767,-120.566514,-73.4736145,26.30758517,-69.95745798,-24.67876459,-29.50573923,-2.311078297,-57.62854511,-18.80090964,0,-23.16288482,-44.39506389,507.6389623,-58.11327518,,,,
127.1199999,496,0,-49.6131024,-92.04818443,-43.31838637,55.47279307,-53.44033063,-9.938263219,-18.73845802,-51.80939001,-116.5229796,-80.43160707,0,-70.07841484,-81.2883381,508.1033598,186.2962236,,,,
127.1279999,496,0,8.188152539,-71.30962152,-24.04292858,78.58389146,-30.54724229,15.88119562,1.816169543,24.8523547,-27.08750982,-33.69932018,0,-5.970227227,-18.98301255,508.5531387,-165.1052989,,,,
127.1359999,496,0,-78.95401593,-108.6805029,-57.62249871,36.52382258,-61.9248685,-22.03370045,-32.26889386,-1.658016453,-61.81186082,16.9629882,0,-22.3885314,-43.86247391,508.9883431,187.2415541,,,,
127.1439999,496,0,6.474146957,-70.98594929,-19.37008189,58.15281715,-21.25000155,-6.991573521,4.400323255,27.45115768,-59.98442896,-81.47628144,0,14.03754496,-14.00820196,509.4090176,-34.54738073,,,,
127.1519999,496,0,-50.20876794,-126.9835358,-71.68829546,16.65934269,-71.79734613,-48.3640934,-19.88507482,2.110738216,-54.85897497,-8.547405021,0,-32.90365165,-40.14211035,509.8152092,-47.82141569,,,,
127.1599999,496,0,-15.46970068,-59.01628248,-5.212000603,88.84857044,-14.52927192,41.23356725,-1.818386037,-23.7767355,-84.44711966,-56.33668209,0,-56.80435627,-69.7330141,510.2069621,195.7028175,,,,
127.1679999,496,0,38.37505818,-51.79685796,-0.135843324,97.76851026,-1.710344972,53.94584506,7.178305039,61.70097623,-3.209266414,9.194620107,0,35.07057006,19.1492476,510.5843211,-126.967396,,,,
127.1759999,496,0,-73.84354896,-127.1496865,-70.60899802,36.70184325,-80.06286017,-19.97779302,-37.77417136,-5.031235126,-57.4825824,19.84018988,0,-37.53940416,-33.31460734,510.9473341,211.2392132,,,,
127.1839999,496,0,20.67196094,-65.47055696,-12.59817264,89.10682769,-25.15051022,34.43092675,-3.012192641,22.7783344,-42.30302609,-87.62506043,0,-5.206008775,-24.32227542,511.2960463,-32.47885206,,,,
127.1919999,496,0,-17.75226874,-94.98355822,-40.35218922,56.00599311,-43.50494722,3.060954482,-15.49869796,18.235885,-40.4272617,17.40670402,0,-4.512630554,-20.52148094,511.6305018,-19.55569491,,,,
127.1999999,496,0,-26.40953592,-84.723462,-24.45553948,48.95907133,-34.35264349,2.325508711,-20.63492112,-26.38777198,-103.3811516,-35.4124996,0,-58.19776689,-60.63269054,511.9507488,218.8347018,,,,
127.2079999,496,0,-15.07384268,-108.8918592,-50.13706799,15.78501301,-59.29466689,-25.01434688,-37.03519101,17.35837558,-52.4222272,-3.85408593,0,-19.27440611,-40.44642334,512.2568334,-143.916037,,,,
127.2159999,496,0,-88.68429455,-133.4852535,-75.8224866,13.93074652,-92.98418442,-39.69895582,-49.13618246,-39.08922606,-98.31529416,7.566862766,0,-68.96251578,-94.28693512,512.5488016,182.3573164,,,,
127.2239999,496,0,7.657770361,-82.82218443,-30.45820842,58.27933303,-41.46511824,4.742712767,-30.67751955,15.82943748,-63.64115224,-80.36616447,0,-12.48894013,-42.33735701,512.8267013,-49.61676531,,,,
127.2319999,497,0,-57.20472927,-137.9842565,-84.67217669,2.786606925,-88.81775096,-45.59345853,-66.79137298,-0.933870697,-66.54144337,6.711451852,0,-31.97488553,-52.36114889,513.0905788,-39.43391116,,,,
127.2399999,497,0,-23.32404498,-84.21969895,-23.0280682,64.16096636,-38.38321316,6.450942849,-17.92967179,-26.64205874,-102.1942432,-50.68184404,0,-63.74382476,-76.73693978,513.3404821,199.9613825,,,,
127.2479999,497,0,2.120160154,-109.0563086,-45.51701669,41.65597213,-51.25742851,-19.51673266,-31.81270229,31.85515785,-38.61030841,-0.739383351,0,-1.301236543,-30.67647441,513.5764588,-141.7951294,,,,
127.2559999,497,0,-96.85728637,-162.5976009,-96.23859699,-5.119701525,-107.0601165,-70.48949866,-62.80122777,-48.27339565,-119.9270397,2.852077354,0,-78.61418522,-100.9146221,513.7985548,177.7907779,,,,
127.2639999,497,0,-6.806955857,-107.6311931,-41.43163256,51.8338008,-50.99177747,-11.48597732,-11.95935161,2.026911902,-73.98583333,-97.10752642,0,-36.39686374,-45.47322827,514.0068176,-60.89657582,,,,
127.2719999,497,0,-79.73570124,-162.7815087,-95.06717924,-1.735155112,-98.94721783,-41.02431555,-64.68712622,-17.19801918,-73.1538205,-18.63906158,0,-50.38829045,-61.32230418,514.2012968,-43.98777147,,,,
127.2799999,497,0,-51.97612704,-114.0818479,-37.20071043,25.6782524,-54.27418527,-6.24457863,-57.46529173,-59.34079129,-137.9190111,-86.24862296,0,-86.70552622,-97.3310384,514.3820405,180.7721874,,,,
127.2879999,497,0,-44.00634372,-152.0115379,-69.99218643,-4.059169322,-83.34067902,-45.02117816,-72.61665741,-2.721200953,-60.26464877,-35.69866061,0,-35.79152839,-31.21819031,514.5490946,-152.1709725,,,,
127.2959999,497,0,-135.59657,-194.951762,-109.5521009,-28.41678336,-135.1374015,-79.7263769,-96.29218372,-76.08156562,-136.0703279,-35.05169141,0,-111.8676783,-107.8002489,514.7025089,170.9722199,,,,
127.3039999,497,0,-4.921222591,-108.6049197,-20.6980037,44.73215926,-49.596202,-14.14858082,-34.33181093,-6.145462628,-98.82921835,-118.8600743,0,-43.50255313,-62.92077137,514.8423338,-71.4877795,,,,
127.3119999,497,0,-75.81063798,-165.9617077,-79.20778105,-8.414349743,-100.877843,-54.72742683,-61.23493715,0.870870032,-72.22361507,-14.24674052,0,-40.14586203,-58.82874258,514.968615,-33.59340582,,,,
127.3199999,497,0,-31.85162533,-95.71206989,-7.403986788,57.37754778,-40.96498255,4.99399242,-12.40130517,-39.08138409,-128.2858741,-81.06190214,0,-68.76536387,-95.21004514,515.0814022,185.7722388,,,,
127.3279999,497,0,30.20868129,-82.80421903,7.674156661,71.56499711,-24.81211078,16.37230003,11.05144738,50.58818963,-35.88199164,0.452198251,0,20.14249768,-1.153706139,515.1807447,-126.7068842,,,,
127.3359999,497,0,-67.98838421,-132.2544615,-45.55257483,21.53223124,-87.6727589,-12.74649767,-30.76990229,10.06264751,-71.96065006,37.8251979,0,-32.24126101,-47.76674487,515.2666909,225.9318656,,,,
127.3439999,497,0,0.863599294,-97.81645198,-15.38760791,42.59076499,-52.88210329,-4.679009168,-41.75369251,25.1024988,-61.99486286,-75.84096673,0,-4.946926524,-42.06160069,515.3392915,-44.18858888,,,,
127.3519999,497,0,-91.54653339,-173.8314707,-92.35144044,-20.01426407,-121.4406448,-89.68634507,-97.03683706,-19.77722847,-89.17131306,-23.41508739,0,-56.54410878,-66.07891026,515.3985937,-35.26704376,,,,
127.3599999,497,0,-36.0263003,-87.6788189,-17.05249157,67.23307698,-57.24750236,3.857982265,-24.98281672,-50.27865066,-140.2188787,-98.77405622,0,-98.16032637,-108.9579908,515.4446493,170.8386241,,,,
127.3679999,497,0,-0.67266641,-86.09914061,-30.66133121,57.84578581,-52.8018199,20.3190801,-25.79397105,21.6080566,-39.72475843,-15.3209058,0,-11.0226726,-40.44994669,515.4775085,-143.8265247,,,,
127.3759999,497,0,-102.1979753,-127.7376229,-83.26810919,-9.191509839,-96.88057211,-38.74712434,-64.6304657,-50.87477336,-100.5616846,-7.514836333,0,-75.82260542,-81.04835265,515.4972181,207.4317397,,,,
127.3839999,497,0,29.23336768,-26.49378914,-1.846028338,67.44394599,-8.153351837,28.98658732,4.950965552,7.944609555,-63.45076708,-101.2539977,0,-11.11160889,-17.53914198,515.5038292,-41.28806301,,,,
127.3919999,497,0,-60.29024459,-97.81649393,-90.4042639,-9.275489373,-83.40189603,-39.36528479,-57.49073003,-0.158644602,-36.76580983,0.925880066,0,-14.76290577,-26.12912288,515.4973934,3.744484064,,,,
127.3999999,497,0,-38.2130748,-44.83414048,-46.62025275,23.63958996,-43.67824705,-11.58354899,-33.04919232,-65.35447211,-115.1198141,-97.29702481,0,-88.67505214,-98.02367943,515.4779601,191.7409411,,,,
127.4079999,497,0,39.68765531,2.470772854,-15.5155643,69.28471898,0.421477785,26.26106834,17.32040392,22.07319387,-33.9935744,-21.21592201,0,-4.813553458,-3.687751907,515.4455792,-126.2648703,,,,
127.4159999,497,0,-59.33103083,-35.54313633,-71.47901468,22.23544785,-52.62729839,-20.31708934,-26.69099142,-8.583114978,-55.11368812,25.52172562,0,-26.08878045,-41.0685529,515.4003022,246.8889151,,,,
127.4239999,497,0,16.12048047,12.48493482,-38.05480046,41.98703238,-14.61516591,-2.920786384,-34.57561028,10.51233763,-43.25099336,-88.80659085,0,-9.823131968,-42.18527804,515.3421795,-32.97969062,,,,
127.4319999,497,0,-34.8508079,-17.22057754,-78.86352607,6.025088884,-44.61366384,-28.60922052,-52.77050505,3.89276784,-30.05694345,0.74867061,0,-28.61648608,-29.86230681,515.2712613,5.461624148,,,,
127.4399999,497,0,-5.629334264,37.84122891,-30.90581206,53.75422444,-6.091824278,15.75230486,-4.040728309,-15.29009197,-52.6614359,-58.84777973,0,-45.3469112,-56.32290703,515.1875979,226.9038958,,,,
127.4479999,497,0,-9.976585936,0.081708137,-74.21016707,12.45740282,-47.81274977,-25.61447799,-38.15090021,9.487425347,-26.6540596,-25.51331194,0,-20.41538375,-41.0523215,515.0912414,-121.86399,,,,
127.4559999,497,0,-83.15567767,-21.56806483,-98.16330493,-19.28523144,-73.45260258,-51.49669923,-61.14143204,-44.8234631,-97.49503254,-18.21731575,0,-78.24440826,-93.69777518,514.9822439,221.0914341,,,,
127.4639999,497,0,47.53264612,63.30407121,-11.49915472,56.17363086,16.45876127,18.63888019,-5.075940416,38.76186321,-19.91095944,-81.24614881,0,9.219069043,-19.69751465,514.8606555,-15.86080948,,,,
127.4719999,497,0,-26.73652534,5.862199027,-65.44784342,-1.364539544,-37.06229486,-31.2910229,-33.41123548,14.38502893,-17.24257915,8.147199648,0,-13.17060548,-29.25419496,514.7265276,33.65949859,,,,
127.4799999,497,0,-0.835858104,55.08124042,-14.77147673,29.47612346,3.117815858,2.013685091,7.442602315,-13.20584565,-66.35204609,-58.67047272,0,-41.9162465,-60.66374816,514.579912,241.4479694,,,,
127.4879999,498,0,3.394980594,17.13864657,-52.32553979,11.01447763,-21.72790723,-12.23205344,-35.78334871,38.21172697,-1.95274261,1.484176978,0,11.49847068,-2.765133587,514.4208598,-85.4614565,,,,
127.4959999,498,0,-76.78390246,-14.86092062,-85.53869463,4.597274428,-61.24606783,-15.22726984,-57.60283723,-49.34134102,-83.29090588,-16.34157744,0,-71.99469716,-80.95837718,514.2494233,242.0898924,,,,
127.5039999,498,0,53.23950115,69.71460636,-4.602273504,70.65853543,15.95485621,47.87904827,13.94849064,31.1305746,-29.26036048,-89.15305335,0,0.844196505,-16.0746834,514.0656542,-17.63007184,,,,
127.5119999,498,0,-45.49961283,-9.905425187,-85.44956406,-3.026726993,-56.2684195,-22.51169076,-44.77219161,27.21278065,-27.82160239,11.35202315,0,-6.770369643,-10.2569275,513.869605,43.76901342,,,,
127.5199999,498,0,-18.62045236,43.68113591,-34.36891915,46.63215497,-12.50607448,19.54748674,-4.901143121,-28.96051466,-90.80580263,-84.24473313,0,-52.59108856,-83.63521299,513.6613272,225.5980338,,,,
